AF3,F7,F3,FC5,T7,P7,O1,O2,P8,T8,FC6,F4,F8,AF4,eyeDetection
0.002934291838684376,-0.011704222121665133,0.5673984755639686,-0.0032085097428907554,0.24523598449457143,-0.0197875129766507,-0.002929977121463705,0.852567781218097,0.001508839444222718,0.18774952405716763,0.23350973888738774,0.030744721015054138,0.0171266714101732,-0.003833898068792932,0
0.0010843639244205816,-0.11205219881014172,0.6713903012365342,-0.003110737990218149,0.008893073240823973,-0.01960971647173693,-0.0028169526355179943,0.7822405130133464,-0.0037712258616430833,-0.12210892166151863,0.13849778731473833,0.0061918036634264345,0.014577698069814026,-0.005488940284511232,0
0.0023163115809910185,-0.06742891199639127,0.705829152595619,-0.00163649332737112,-0.1387852622928843,-0.020662818846994502,-0.002929977121463705,0.4848858984193995,-0.005212945821046581,-0.24352927952583595,0.1115027481492638,0.0678148119184753,0.011184584207647966,-0.0046181334571642006,0
0.0027296360390589264,0.044020467753061,0.7290134773667656,-0.0017342650800437267,0.05322536110084357,-0.021014992693265625,-0.0028169526355179943,0.5022970182176747,-0.0006490595859231124,0.10680261881428942,0.22001221930466253,0.20357800198034462,0.01415562780891096,-0.0033993433947172393,0
0.001698331323297661,0.044020467753061,0.6367263593456859,-0.0026199621336657638,0.17125288072815553,-0.01960971647173693,-0.0031516789977420277,0.3971475104163427,-0.0037712258616430833,0.33597697391751513,0.2742669548823378,0.21609517553215996,0.014577698069814026,-0.0030513601596174633,0
-0.00035625239059194864,-0.11205219881014172,0.4519270327717422,-0.0022269580297858116,0.11223912091451264,-0.01943533913037927,-0.003710280784051181,0.029465627617645266,-0.007614252117065016,0.0395220741968201,0.1927525228924377,0.0432618945668476,0.010762513946744146,-0.00453156201818813,0
-0.0009742326482853063,-0.19019736937664714,0.3711195318703437,-0.0025221903809931573,0.05322536110084357,-0.020310645000723382,-0.004490584446638657,-0.0053566119789051885,-0.0030503658819415473,-0.12210892166151863,-0.03776393900108501,-0.2285052004329144,0.008213540606384974,-0.006446318550834489,0
0.0014936755236722111,-0.06742891199639127,0.32497597285979357,-0.004191978549185399,0.06790683305449305,-0.020837196188352166,-0.005047012685141112,-0.04052024608128043,-0.006172532157661944,-0.027758470420625316,-0.1735331065686845,-0.3024046673637552,0.005664567266025799,-0.0060983353157347125,0
0.001698331323297661,0.02181766163109973,0.27883241384924345,-0.004880215004272698,0.09755764896086316,-0.020488441505636838,-0.004155858084414425,-0.2678889869763017,-0.014574763739248566,-0.04142483104605811,-0.010768899835586411,-0.12957138639844287,0.00991009753746838,-0.00453156201818813,0
0.001698331323297661,0.03291906469208532,0.2903120309689452,-0.004389439147720138,0.06790683305449305,-0.021014992693265625,-0.003821131722190293,-0.25047786717802645,-0.01145259746352817,-0.06823192304206442,0.2742669548823378,-0.03087828723999473,0.018401158080352788,-0.003922166986964649,0
0.001698331323297661,0.02181766163109973,0.198024912947845,-0.004191978549185399,0.023574545194473457,-0.022064675904967402,-0.004936161747001901,-0.0053566119789051885,-0.005933805800748117,-0.06823192304206442,0.22001221930466253,-0.15436501862607208,0.01372528166053826,-0.0057503520806349365,0
-0.0020055373640462068,-0.1568931601937102,-0.10202076588658186,-0.005568451459359996,-0.06480215852649458,-0.021363747375980954,-0.005270888109226034,-0.023109126283005207,-0.010731737483826635,-0.20305582690439683,-0.13277589057373446,-0.4136149400740187,-0.001552006606679774,-0.007751680052257367,0
-0.005500737392948347,-0.35780678814048134,-0.367627593361924,-0.007730932577294323,-0.16814820620018325,-0.020310645000723382,-0.004490584446638657,-0.197903113277376,-0.014092630116460858,-0.25693282552385105,-0.32279979371900924,-0.5616545888117238,-0.007494093809205761,-0.007926520409405155,0
-0.005500737392948347,-0.2461397338212012,-0.2753404753408238,-0.008125853774363801,-0.0944529744328647,-0.020310645000723382,-0.004155858084414425,0.029465627617645266,-0.006172532157661944,-0.14917882828494264,-0.2142903225636346,-0.37654484917059755,-0.004092704059570068,-0.00766510861328145,0
-0.003650809478684552,-0.07874798962719487,-0.07906153164717841,-0.007142384968069331,-0.02046987066647499,-0.0197875129766507,-0.004490584446638657,0.432311144518749,-0.0013699195656246483,-0.16258237428295774,-0.09228333182548655,-0.1172949277226509,-0.0028264932768593608,-0.006880873224910336,0
-0.0032374850206166443,-0.134472679501921,-0.18282826678798036,-0.007142384968069331,-0.10913444638651418,-0.0197875129766507,-0.004155858084414425,0.3971475104163427,-0.005933805800748117,-0.17598592028097285,-0.07852115499603508,-0.24078165910872826,-0.004092704059570068,-0.006359747111858417,0
-0.006118717650641705,-0.25724113688218675,-0.3791072104816053,-0.008125853774363801,-0.1387852622928843,-0.020488441505636838,-0.0034864053599661603,0.15202625521722143,-0.007614252117065016,-0.13577528228695143,-0.2277878421463598,-0.598724679715145,-0.007494093809205761,-0.007926520409405155,0
-0.00735467816602842,-0.29076302063495163,-0.33296365147107565,-0.008223625527036408,-0.02046987066647499,-0.020488441505636838,-0.0042667090225536365,0.012054507819370038,-0.007132118494277732,-0.13577528228695143,-0.35005949013123405,-0.611001138390937,-0.007494093809205761,-0.007838251491233439,0
-0.003855465278310002,-0.2126178500684363,-0.18282826678798036,-0.007830621423156455,0.008893073240823973,-0.01960971647173693,-0.0053817390473652445,-0.18049199347910078,-0.012412183800143533,-0.21645937290241193,-0.26854505814130986,-0.3517512169429902,-0.00027751993650018724,-0.005836923519611008,0
-0.0024148489632978367,-0.134472679501921,-0.14816432489713197,-0.008125853774363801,-0.005788398712825509,-0.019083165284108146,-0.004823137261056092,-0.3030526210786769,-0.014331356473375112,-0.37835318338816837,-0.06502363541328578,-0.21598802688109905,0.00524249700512198,-0.006359747111858417,0
-0.0030328292209911944,-0.08984939268818044,-0.10202076588658186,-0.007928393175829062,0.09755764896086316,-0.019083165284108146,-0.003931982660329503,-0.11050611978020614,-0.00569039853487466,-0.23012573352782084,0.1927525228924377,-0.16664147730186404,0.007791470345481153,-0.005923494958587079,0
0.0010843639244205816,0.06644094844485018,-0.02121326498518337,-0.00625668791444712,0.03854388914719408,-0.01943533913037927,-0.004045007146275314,0.06462926172002051,-0.002572913168113467,0.24162652267662182,0.4100361224499373,-0.1172949277226509,0.01415562780891096,-0.002703376924517687,0
0.003756927896003549,0.3119778632053619,0.04788952826474972,-0.004782443251600091,-0.15346673424653376,-0.019961890318008053,-0.004490584446638657,0.06462926172002051,-0.0066499848714904495,0.36304688054093914,0.36927890645498723,-0.1172949277226509,0.019667368863064246,-0.0025285365673700538,0
0.001906999981739754,0.22273128957787092,0.0017459692542200816,-0.00527321910815265,-0.21248049406020283,-0.0197875129766507,-0.004823137261056092,0.18718988931959668,-0.002572913168113467,0.18774952405716763,0.16575748372696317,-0.19143510952949325,0.015852184739993613,-0.005314099927363598,0
-0.00015159659096613382,-0.045226105874429996,-0.09054114876688014,-0.00625668791444712,-0.0501206865728451,-0.019961890318008053,-0.005047012685141112,0.4848858984193995,0.00535186569964465,0.29550352129607604,0.16575748372696317,-0.21598802688109905,0.010332167798371447,-0.006359747111858417,0
-0.0017968687056044788,-0.045226105874429996,-0.14816432489713197,-0.006944924369534418,0.05322536110084357,-0.020136267659365718,-0.004823137261056092,0.7822405130133464,0.006068044770386983,0.43032742515838457,0.17925500330968838,-0.2285052004329144,0.008213540606384974,-0.00514095704941161,0
-0.0040641339367520945,-0.056327508935415584,-0.2982997095802068,-0.007633160824621716,-0.15346673424653376,-0.01943533913037927,-0.004936161747001901,0.6248576458172198,-0.004492085841345045,0.026118528198828893,-0.13277589057373446,-0.4136149400740187,0.00014455032440363277,-0.0060100663975631505,0
-0.005296081593322532,-0.2126178500684363,-0.4252507694921554,-0.008321397279709014,-0.3601588295939111,-0.019961890318008053,-0.005157863623280224,0.04721814192174528,-0.01385390375954703,-0.39175672938618344,-0.4315739221211342,-0.611001138390937,-0.009190650740288414,-0.009231881910828034,0
-0.005500737392948347,-0.16799456325468587,-0.2521561505696771,-0.008125853774363801,-0.25681278192022244,-0.021014992693265625,-0.004936161747001901,-0.18049199347910078,-0.012173457443229707,-0.39175672938618344,-0.3365619705484848,-0.537101671460096,-0.008338234331012648,-0.00957986514592781,0
-0.0042687897363779094,0.03291906469208532,0.02493029402536674,-0.006649692018327072,-0.06480215852649458,-0.020662818846994502,-0.004490584446638657,0.012054507819370038,-0.008812564810595057,-0.28400273214727506,-0.1735331065686845,-0.32719829959136254,-0.0032485635377631807,-0.007142285021034041,0
-0.0042687897363779094,-0.02280562518265072,0.02493029402536674,-0.006551920265654466,-0.12381591834016366,-0.019961890318008053,-0.004936161747001901,-0.04052024608128043,-0.013371770136759322,-0.3378797307667293,-0.18729528339813598,-0.32719829959136254,-0.005367190729749655,-0.007142285021034041,0
-0.006327386309083798,-0.20151644700745072,-0.10202076588658186,-0.00841916903238162,-0.3305080136875148,-0.020488441505636838,-0.0053817390473652445,-0.3030526210786769,-0.015773076432778182,-0.37835318338816837,-0.06502363541328578,-0.3888213078464114,-0.0032485635377631807,-0.008013091848381226,0
-0.00591406185101589,-0.14557408256290658,-0.02121326498518337,-0.008321397279709014,-0.3158265417338653,-0.021014992693265625,-0.005157863623280224,-0.14566975388258138,-0.007852978473979269,-0.17598592028097285,0.16575748372696317,-0.19143510952949325,0.0060866375269296195,-0.006271478193686855,0
-0.0028281734213653795,-0.03390702824362641,0.09425817780706351,-0.007042696122207025,-0.18311755015290387,-0.020488441505636838,-0.003931982660329503,0.3271616367174481,-0.00281163952502772,-0.0009513784246190055,0.22001221930466253,-0.08022483681922975,0.007791470345481153,-0.0057503520806349365,0
-0.0032374850206166443,-0.14557408256290658,-0.009733647865481646,-0.007830621423156455,-0.15346673424653376,-0.01960971647173693,-0.002149673458876229,0.5896940117148446,-0.0016133268314976786,0.0395220741968201,0.1250002677320131,-0.2037115682052852,0.003115593925666626,-0.0074902682561336625,0
-0.005500737392948347,-0.26834253994316243,-0.21749220867882874,-0.008714401383588966,-0.25681278192022244,-0.01890878794275048,-0.0027061016973787834,0.41490002472047377,-0.0006490595859231124,0.10680261881428942,0.15225996414421386,-0.2530581177845202,0.00524249700512198,-0.008186234726333215,0
-0.005296081593322532,-0.07874798962719487,-0.24067653344997542,-0.00841916903238162,-0.3305080136875148,-0.019961890318008053,-0.006162042709952622,-0.04052024608128043,-0.007614252117065016,0.1338725254377134,0.16575748372696317,-0.19143510952949325,0.010762513946744146,-0.007838251491233439,0
-0.006327386309083798,-0.045226105874429996,-0.24067653344997542,-0.00841916903238162,-0.3305080136875148,-0.022064675904967402,-0.007164048248818421,-0.28564150128043275,-0.015052216453076646,-0.17598592028097285,-0.09228333182548655,-0.29012820868794137,0.0060866375269296195,-0.008361075083480848,0
-0.009822586337985937,-0.36890819120145707,-0.3214840343513739,-0.008911861982123705,-0.3158265417338653,-0.021538124717338614,-0.0053817390473652445,-0.2330667473797823,-0.01385390375954703,-0.5938611778659613,-0.4043142257089094,-0.48775512188086106,-0.007494093809205761,-0.008970470114704329,0
-0.008381970022973407,-0.3353863074486922,-0.2521561505696771,-0.008714401383588966,-0.25681278192022244,-0.020837196188352166,-0.004936161747001901,-0.14566975388258138,-0.010731737483826635,-0.5533877252445222,-0.37705452929670863,-0.4506850309774399,-0.011731348193179461,-0.00844764652245692,0
-0.0032374850206166443,0.02181766163109973,-0.09054114876688014,-0.007730932577294323,-0.12381591834016366,-0.021715921222252074,-0.00471228632291698,0.08204038151829574,-0.007132118494277732,-0.20305582690439683,-0.09228333182548655,-0.2778517500121494,-0.001552006606679774,-0.007751680052257367,0
-0.0017968687056044788,0.02181766163109973,-0.12520509065772853,-0.007437617319276678,-0.06480215852649458,-0.020488441505636838,-0.0034864053599661603,0.3271616367174481,-0.004969538555173124,-0.04142483104605811,-0.02426641941833571,-0.19143510952949325,0.003545940074038573,-0.006794301785934265,0
-0.006532042108709247,-0.2461397338212012,-0.2753404753408238,-0.008321397279709014,-0.28646359782659253,-0.020310645000723382,-0.0033755544218270483,0.1346151354189462,-0.008812564810595057,-0.24352927952583595,-0.14653806740318592,-0.2530581177845202,-0.0036706337986662477,-0.007838251491233439,0
-0.010031254996427666,-0.3131835013267309,-0.33296365147107565,-0.008518857878243753,-0.49286782117487254,-0.022591227092596186,-0.004823137261056092,-0.0053566119789051885,-0.0073708448511919855,-0.4727036346290617,-0.11927837099098515,-0.4013384813982049,-0.007494093809205761,-0.010014419820003657,0
-0.009208618939108492,-0.19019736937664714,-0.367627593361924,-0.008026164928501668,-0.25681278192022244,-0.021890298563609738,-0.005047012685141112,0.2923393971208976,0.000787979464521182,-0.18965228090638173,0.08424305173706302,-0.3394747582671764,0.00014455032440363277,-0.0090570415536804,0
-0.007768002624095963,-0.06742891199639127,-0.3214840343513739,-0.008518857878243753,0.008893073240823973,-0.01873441060139313,-0.0033755544218270483,0.3971475104163427,-0.0011311932087103955,0.26869642930004584,0.4100361224499373,-0.10501846904683705,0.010332167798371447,-0.006880873224910336,0
-0.005296081593322532,-0.07874798962719487,-0.17134864966827865,-0.008911861982123705,-0.22716196601382616,-0.019260961789021914,-0.0027061016973787834,0.18718988931959668,-0.00569039853487466,0.32257342791950006,0.5458052900175369,-0.0679483781434159,0.014999768330717847,-0.006707730346958193,0
-0.0026235176217395645,-0.20151644700745072,-0.0329179726366283,-0.008518857878243753,-0.3601588295939111,-0.020662818846994502,-0.003821131722190293,0.18718988931959668,-0.004009952218557336,0.22822297667860672,0.4370311616154359,-0.04315474591580858,0.015430114479090547,-0.0060100663975631505,0
-0.001592212905978664,-0.11205219881014172,0.10573779492676523,-0.007928393175829062,-0.10913444638651418,-0.020136267659365718,-0.005047012685141112,0.2046010091178719,-0.005451672177960408,0.2820999752980609,0.396538602867188,0.15423145240113148,0.016274255000897433,-0.004791276335116189,0
-0.0022101931636720217,0.08886142913662946,0.08255347015559811,-0.007730932577294323,0.023574545194473457,-0.018560033260035465,-0.004601435384777769,0.012054507819370038,-0.008573838453680805,0.0395220741968201,0.28776447446508713,0.0432618945668476,0.012459070877827553,-0.006880873224910336,0
-0.006736697908335062,-0.02280562518265072,-0.10202076588658186,-0.00861662963091636,-0.02046987066647499,-0.016453828509520322,-0.003821131722190293,-0.1279172395784503,-0.00905129116750931,-0.31080982414330527,-0.10578085140823584,-0.4381678574256464,-0.0028264932768593608,-0.009927848381027586,0
-0.011471871311440196,-0.3242849043877165,-0.21749220867882874,-0.00930486608600366,-0.12381591834016366,-0.016279451168162658,-0.003931982660329503,-0.21565562758150708,-0.011934731086315454,-0.5131770872505008,-0.41781174529165865,-0.6357947706185662,-0.014280321533538634,-0.011669462035721957,0
-0.009822586337985937,-0.3353863074486922,-0.12520509065772853,-0.008814090229451099,-0.1387852622928843,-0.01698037969714911,-0.002929977121463705,-0.057931365879555656,-0.011934731086315454,-0.567054085869955,-0.26854505814130986,-0.4506850309774399,-0.01088720767137182,-0.011146638443474393,0
-0.005500737392948347,-0.056327508935415584,0.09425817780706351,-0.007437617319276678,0.08287617700721368,-0.01663162501443378,-0.0018149470966520964,0.22201212891614713,-0.006411258514576196,-0.25693282552385105,0.07074553215431373,-0.17915865085367938,-0.0006995901974040071,-0.0070557135820579694,0
-0.0024148489632978367,0.2451517702696601,0.3134963557400919,-0.005863683810567342,0.12692059286813595,-0.01803348207240668,-0.0031516789977420277,0.1346151354189462,-0.004730812198258872,0.10680261881428942,0.2607694352996126,0.030744721015054138,0.008635610867288793,-0.004183578783088354,0
0.002934291838684376,0.35660115001911236,0.3828242395217886,-0.004584982653065352,-0.1387852622928843,-0.019961890318008053,-0.0053817390473652445,-0.0930949999819309,-0.007132118494277732,0.066591980820268,0.28776447446508713,0.05553835324266145,0.012881141138731372,-0.004966116692263822,0
0.005610868669083622,0.3232969408361655,0.3828242395217886,-0.003996435043840186,-0.15346673424653376,-0.01803348207240668,-0.00471228632291698,0.012054507819370038,-0.007852978473979269,0.0529256201948352,0.24700725847013705,-0.10501846904683705,0.01330321139963444,-0.005227528488387527,0
0.0010843639244205816,0.20031080888608174,0.27883241384924345,-0.005568451459359996,-0.005788398712825509,-0.01487759411018976,-0.0023713753351546508,0.34457275651569225,-0.003532499504729256,0.2820999752980609,0.36927890645498723,-0.05567191946760204,0.014577698069814026,-0.0047047048961401175,0
-0.0028281734213653795,0.03291906469208532,0.10573779492676523,-0.008125853774363801,-0.21248049406020283,-0.014351042922560973,-0.002149673458876229,0.5548717721183252,0.0017475658011369708,0.3091698819214849,0.4915505544398375,0.10488490282189647,0.012459070877827553,-0.0060100663975631505,0
-0.003650809478684552,-0.08984939268818044,0.04788952826474972,-0.007730932577294323,-0.24213130996657295,-0.014699797605276302,-0.002149673458876229,0.5548717721183252,-0.00017160687209460674,0.22822297667860672,0.36927890645498723,-0.018601828564180876,0.005664567266025799,-0.0070557135820579694,0
-0.003855465278310002,-0.011704222121665133,0.14040173681761361,-0.005863683810567342,0.06790683305449305,-0.01487759411018976,-0.0023713753351546508,0.4497222643169932,-0.004492085841345045,0.24162652267662182,0.28776447446508713,-0.0679483781434159,0.00524249700512198,-0.006184906754710784,0
-0.003650809478684552,0.010716258570124045,0.10573779492676523,-0.006749380864189379,0.08287617700721368,-0.014351042922560973,-0.0031516789977420277,0.4671333841152684,-0.002090779545326184,0.1338725254377134,0.3285216904600372,0.0678148119184753,0.007361124197109206,-0.006880873224910336,0
-0.005500737392948347,-0.134472679501921,0.013450676905665012,-0.008321397279709014,-0.22716196601382616,-0.014699797605276302,-0.0033755544218270483,0.5371192578141941,-0.0016133268314976786,-0.06823192304206442,0.15225996414421386,-0.006325369888367026,-0.001974076867583594,-0.0090570415536804,0
-0.008999950280666765,-0.1568931601937102,0.03640991114506847,-0.008026164928501668,-0.27149425387384574,-0.017681308226135246,-0.004823137261056092,0.11720401562067098,-0.011934731086315454,-0.2703363715218662,-0.11927837099098515,-0.2530581177845202,-0.010465137410468001,-0.009841276942051514,0
-0.010235910796053481,-0.12337127644094531,-0.009733647865481646,-0.008223625527036408,0.008893073240823973,-0.018207859413764033,-0.006162042709952622,-0.3382162551810832,-0.019616102688200115,-0.5265806332485159,-0.2142903225636346,-0.29012820868794137,-0.01088720767137182,-0.009493293706951738,0
-0.00735467816602842,-0.134472679501921,-0.06735682399573348,-0.007437617319276678,0.14188993682088274,-0.015404145297818545,-0.004936161747001901,-0.11050611978020614,-0.012173457443229707,-0.5938611778659613,-0.10578085140823584,-0.1172949277226509,-0.011731348193179461,-0.009841276942051514,0
-0.003446153679058737,-0.03390702824362641,0.10573779492676523,-0.005372907954014783,0.023574545194473457,-0.01663162501443378,-0.004155858084414425,0.23976464322024715,-0.005212945821046581,-0.24352927952583595,0.09774057131978825,0.09260844414608262,-0.006219607139026174,-0.009145310471851962,0
-0.0022101931636720217,0.09996283219761505,0.3364555899794953,-0.004880215004272698,-0.10913444638651418,-0.020662818846994502,-0.0053817390473652445,-0.04052024608128043,-0.009533424790296592,0.09339907281627431,0.2607694352996126,0.15423145240113148,0.0039680103349423925,-0.006446318550834489,0
-0.0007695768486594915,0.16700659970314477,0.4519270327717422,-0.0051754473554800435,-0.12381591834016366,-0.0197875129766507,-0.005157863623280224,-0.1279172395784503,-0.00929469843338234,0.29550352129607604,0.4100361224499373,0.12967853504950377,0.009488027276564559,-0.00453156201818813,0
0.002524980239433112,0.2451517702696601,0.42896779853233874,-0.004584982653065352,-0.25681278192022244,-0.015226348792905088,-0.00226052439701544,0.4848858984193995,-0.0004103332290088596,0.4439937857838174,0.6408172415901863,0.3022711011388146,0.014577698069814026,-0.0047047048961401175,0
0.0012890197240463964,0.21162988651688533,0.39430385664149037,-0.005470679706687389,-0.4044911174539307,-0.012949185864588385,-0.00014348883333813148,0.7648293932150713,6.711948481964606e-05,0.29550352129607604,0.6815744575851364,0.4998980143317343,0.01754874167107702,-0.005575511723487303,0
-0.003650809478684552,0.010716258570124045,0.40578347376119206,-0.006749380864189379,-0.301145069780242,-0.012771389359674618,-0.00036519070961635547,0.432311144518749,-0.0030503658819415473,0.066591980820268,0.5050480740225868,0.4998980143317343,0.012028724729454853,-0.006184906754710784,0
-0.004886769994071267,-0.08984939268818044,0.32497597285979357,-0.00606114440910208,-0.18311755015290387,-0.012949185864588385,-0.0011454943722038315,0.41490002472047377,-0.0008924668517961427,0.1609424320611374,0.3285216904600372,0.2899946424630008,0.004390080595846213,-0.0074036968171577455,0
-0.00591406185101589,-0.10095079574915614,0.11721741204644649,-0.006649692018327072,-0.21248049406020283,-0.012597012018316953,-0.0015910716725671748,0.4497222643169932,-0.003532499504729256,0.066591980820268,0.08424305173706302,-0.018601828564180876,-0.0023961471284866614,-0.00957986514592781,0
-0.00879529448104095,-0.20151644700745072,-0.09054114876688014,-0.008321397279709014,-0.22716196601382616,-0.014351042922560973,-0.0032647034836878375,-0.11050611978020614,-0.01385390375954703,-0.24352927952583595,-0.14653806740318592,-0.2285052004329144,-0.007494093809205761,-0.01132147880062218,0
-0.008999950280666765,-0.27966161757396607,-0.22897182579851,-0.00753538907194911,-0.10913444638651418,-0.018382236755121698,-0.005270888109226034,-0.6007486301784798,-0.018413109085711296,-0.14917882828494264,-0.18729528339813598,-0.31492184091557057,-0.006641677399929241,-0.010798655208374771,0
-0.011676527111066011,-0.2126178500684363,-0.3214840343513739,-0.006649692018327072,-0.03543921461919562,-0.019083165284108146,-0.00605119177181351,-0.6533233840791303,-0.01673266276939397,-0.027758470420625316,-0.1735331065686845,-0.3888213078464114,-0.004945120468846587,-0.01018926017715129,0
-0.01620303185572905,-0.17909596631567146,-0.41377115237245365,-0.00861662963091636,-0.19779902210655337,-0.016453828509520322,-0.0064967690721767545,-0.7932951314769816,-0.01889524270849858,-0.4322301820076226,-0.2823072349707854,-0.5123080392324888,-0.007916164070108828,-0.011669462035721957,0
-0.013526455025329806,-0.2126178500684363,-0.4367303866118571,-0.008814090229451099,-0.21248049406020283,-0.01487759411018976,-0.006383744586230945,-0.6181597499767549,-0.01673266276939397,-0.7016151751048697,-0.37705452929670863,-0.4506850309774399,-0.010034791262096054,-0.012017445270821579,0
-0.008177314223347592,-0.08984939268818044,-0.28682009246052553,-0.005765912057894735,0.09755764896086316,-0.012949185864588385,-0.004823137261056092,0.06462926172002051,-0.005451672177960408,-0.37835318338816837,-0.26854505814130986,-0.2285052004329144,-0.009612721001192235,-0.010623814851226984,0
-0.008999950280666765,0.08886142913662946,-0.09054114876688014,-0.004684671498927484,0.2302666405418246,-0.01066860377271558,-0.004045007146275314,0.3271616367174481,-0.0018520531884119314,0.012452167573396102,-0.14653806740318592,-0.19143510952949325,-0.009612721001192235,-0.010275831616127362,0
-0.010649235254121023,0.12216563831957632,-0.0329179726366283,-0.00527321910815265,0.15657140877453224,-0.00996767524372913,-0.004377559960692748,0.1346151354189462,-0.0037712258616430833,0.066591980820268,-0.14653806740318592,-0.2653345764603341,-0.007916164070108828,-0.009754705503075443,0
-0.00591406185101589,0.1445861190113556,0.08255347015559811,-0.005077675602807437,0.20090369663455182,-0.009615501397458008,-0.003597256298105371,0.3097505169191728,0.0005492531076069291,0.066591980820268,-0.05152611583053648,-0.09274201037102321,-0.0006995901974040071,-0.008709058318580624,0
-0.0011829013067270345,0.2562531733306358,0.30201673862039013,-0.004487210900392745,0.20090369663455182,-0.010842981114072931,-0.0023713753351546508,0.5722828919165693,0.0024684257808385065,0.33597697391751513,0.3150241708772879,0.22837163420797382,0.012028724729454853,-0.00766510861328145,0
-0.0017968687056044788,0.2562531733306358,0.39430385664149037,-0.004684671498927484,0.17125288072815553,-0.012771389359674618,-0.0032647034836878375,0.3097505169191728,-0.00569039853487466,0.565151329020717,0.5320431131880854,0.3641348242698431,0.020519785272340014,-0.0060100663975631505,0
-0.003446153679058737,0.03291906469208532,0.32497597285979357,-0.005470679706687389,0.09755764896086316,-0.012070460830688167,-0.004377559960692748,-0.14566975388258138,-0.013371770136759322,0.26869642930004584,0.3285216904600372,0.2529245515595796,0.014577698069814026,-0.006184906754710784,0
-0.0028281734213653795,-0.1568931601937102,0.1748405881766983,-0.005863683810567342,-0.18311755015290387,-0.011721706147973151,-0.003597256298105371,-0.3030526210786769,-0.013615177402632779,-0.24352927952583595,0.07074553215431373,0.08009127059428915,0.005664567266025799,-0.008361075083480848,0
-0.0030328292209911944,-0.011704222121665133,0.1633609710569966,-0.00527321910815265,-0.19779902210655337,-0.013472317888661066,-0.0027061016973787834,-0.07534248567779983,-0.00809170483089352,-0.17598592028097285,0.1115027481492638,0.10488490282189647,0.009488027276564559,-0.007838251491233439,0
-0.003855465278310002,0.18920940582510604,0.30201673862039013,-0.004389439147720138,0.12692059286813595,-0.012949185864588385,-0.002929977121463705,0.2046010091178719,-0.0023295059022400114,0.22822297667860672,0.396538602867188,0.22837163420797382,0.01754874167107702,-0.006184906754710784,0
-0.0040641339367520945,0.07754235150582586,0.34816029763094025,-0.00497990385013483,0.12692059286813595,-0.012244838172045832,-0.0033755544218270483,0.25717576301852235,-0.0023295059022400114,0.32257342791950006,0.5050480740225868,0.2777181837872088,0.016696325261801252,-0.007317125378181674,0
-0.006327386309083798,-0.1568931601937102,0.30201673862039013,-0.005668140305222128,-0.06480215852649458,-0.014351042922560973,-0.0034864053599661603,0.3097505169191728,-0.004730812198258872,0.1609424320611374,0.36927890645498723,0.22837163420797382,0.010762513946744146,-0.008535915440628636,0
-0.008177314223347592,-0.19019736937664714,0.23268885483869337,-0.005668140305222128,-0.02046987066647499,-0.015051971451547424,-0.00471228632291698,0.432311144518749,-0.0037712258616430833,0.1338725254377134,0.1927525228924377,0.11716136149771032,0.006516983675301566,-0.008013091848381226,0
-0.005296081593322532,-0.0006028190606894465,0.10573779492676523,-0.005372907954014783,0.05322536110084357,-0.012244838172045832,-0.0059381672858677004,0.3271616367174481,-0.002572913168113467,0.26869642930004584,0.20651469972191322,0.0678148119184753,0.007791470345481153,-0.00844764652245692,0
-0.0026235176217395645,0.2562531733306358,0.07107385303591685,-0.004684671498927484,0.15657140877453224,-0.010494226431357915,-0.004601435384777769,0.16977876952132145,-0.004253359484430792,0.18774952405716763,0.30152665129456263,0.0678148119184753,0.008213540606384974,-0.009666436584903881,0
-0.006118717650641705,0.15568752207234118,0.10573779492676523,-0.004389439147720138,0.2599174564482209,-0.011896083489330814,-0.0028169526355179943,0.15202625521722143,-0.007132118494277732,-0.12210892166151863,0.09774057131978825,-0.04315474591580858,0.0009969667336793995,-0.010973495565522405,0
-0.010235910796053481,-0.134472679501921,-0.0329179726366283,-0.005372907954014783,-0.03543921461919562,-0.013297940547303402,-0.0030408280596029157,0.11720401562067098,-0.010010877504125099,-0.44563372800563766,-0.24155001897583533,-0.2037115682052852,-0.006641677399929241,-0.011756033474697874,0
-0.009208618939108492,-0.07874798962719487,0.03640991114506847,-0.006356376760309427,-0.3601588295939111,-0.013472317888661066,-0.00471228632291698,-0.11050611978020614,-0.011213871106613918,-0.5131770872505008,-0.14653806740318592,-0.0679483781434159,-0.0011216604583070744,-0.009754705503075443,0
-0.0028281734213653795,0.20031080888608174,0.42896779853233874,-0.004389439147720138,-0.10913444638651418,-0.015051971451547424,-0.005716465409589378,-0.25047786717802645,-0.00809170483089352,-0.12210892166151863,0.3420192100427865,0.3393411920422358,0.012028724729454853,-0.00653288998981056,0
0.0004663836667272239,0.21162988651688533,0.5788780926836703,-0.0025221903809931573,0.09755764896086316,-0.016105073826804994,-0.0059381672858677004,-0.07534248567779983,-0.003532499504729256,0.349643334542924,0.5728003291830355,0.5121744730075481,0.0171266714101732,-0.006359747111858417,0
-0.004886769994071267,-0.03390702824362641,0.3828242395217886,-0.004584982653065352,-0.21248049406020283,-0.014351042922560973,-0.005603440923643567,0.09945150131657096,-0.00281163952502772,0.2820999752980609,0.28776447446508713,0.2529245515595796,0.008635610867288793,-0.008970470114704329,0
-0.010235910796053481,-0.20151644700745072,0.24416847195839508,-0.006356376760309427,-0.28646359782659253,-0.013998869076289852,-0.005157863623280224,0.2046010091178719,-0.004492085841345045,-0.06823192304206442,0.043485835742112955,0.018468262339240288,-0.0006995901974040071,-0.01018926017715129,0
-0.006532042108709247,-0.14557408256290658,0.3364555899794953,-0.004782443251600091,0.12692059286813595,-0.015051971451547424,-0.005270888109226034,0.25717576301852235,-0.005451672177960408,-0.0009513784246190055,0.1250002677320131,0.11716136149771032,0.0022714534038589863,-0.009841276942051514,0
-0.0013875571063528493,-0.10095079574915614,0.39430385664149037,-0.004191978549185399,0.18622222468090235,-0.01312356320594574,-0.004601435384777769,0.2745868828167976,-0.005451672177960408,-0.0009513784246190055,0.24700725847013705,0.22837163420797382,0.006516983675301566,-0.009231881910828034,0
-0.003446153679058737,-0.17909596631567146,0.3134963557400919,-0.005372907954014783,-0.0944529744328647,-0.011721706147973151,-0.004045007146275314,0.5197081380159189,-0.002090779545326184,-0.10870537566350352,0.24700725847013705,0.22837163420797382,0.007791470345481153,-0.007751680052257367,0
-0.006736697908335062,-0.12337127644094531,0.3364555899794953,-0.00527321910815265,-0.0501206865728451,-0.014176665581203311,-0.004936161747001901,0.6774323997178703,0.0005492531076069291,0.10680261881428942,0.4235336420326866,0.3022711011388146,0.012881141138731372,-0.00653288998981056,0
-0.006118717650641705,-0.03390702824362641,0.2903120309689452,-0.004389439147720138,0.03854388914719408,-0.014351042922560973,-0.005716465409589378,0.5371192578141941,6.711948481964606e-05,0.1609424320611374,0.6000600255952362,0.3393411920422358,0.01372528166053826,-0.007578537174305379,0
-0.005091425793697082,-0.11205219881014172,0.013450676905665012,-0.005372907954014783,-0.07977150247921522,-0.012070460830688167,-0.005492589985504357,0.4497222643169932,-0.0013699195656246483,-0.027758470420625316,0.4100361224499373,0.17902508462873878,0.0060866375269296195,-0.009405024788780176,0
-0.005500737392948347,-0.16799456325468587,-0.09054114876688014,-0.006649692018327072,0.09755764896086316,-0.0124226346769596,-0.006162042709952622,0.34457275651569225,-0.004969538555173124,-0.0009513784246190055,0.22001221930466253,-0.018601828564180876,0.0018493831429551662,-0.009145310471851962,0
-0.006941353707960877,-0.17909596631567146,-0.09054114876688014,-0.007142384968069331,0.436958735889202,-0.013472317888661066,-0.0064967690721767545,0.029465627617645266,-0.00929469843338234,0.026118528198828893,0.24700725847013705,-0.09274201037102321,0.005664567266025799,-0.009231881910828034,0
-0.008381970022973407,-0.16799456325468587,-0.3097793266999085,-0.008026164928501668,0.2599174564482209,-0.012771389359674618,-0.005492589985504357,-0.04052024608128043,-0.010493011126912382,-0.20305582690439683,0.20651469972191322,-0.17915865085367938,0.00524249700512198,-0.010014419820003657,0
-0.00735467816602842,-0.08984939268818044,-0.3097793266999085,-0.007730932577294323,0.03854388914719408,-0.012597012018316953,-0.00605119177181351,0.15202625521722143,-0.009772151147210846,-0.20305582690439683,0.15225996414421386,-0.15436501862607208,0.0009969667336793995,-0.009666436584903881,0
-0.006532042108709247,-0.045226105874429996,-0.05587720687603176,-0.005863683810567342,0.3189312162618638,-0.012949185864588385,-0.006942346372540098,0.2745868828167976,-0.008573838453680805,0.012452167573396102,0.2742669548823378,0.08009127059428915,0.0005748964727755795,-0.009493293706951738,0
-0.008590638681415136,-0.14557408256290658,-0.12520509065772853,-0.006454148512982033,0.3042497443082405,-0.012949185864588385,-0.0073879236729034415,0.2745868828167976,-0.005933805800748117,0.0529256201948352,0.2607694352996126,0.10488490282189647,-0.0006995901974040071,-0.010885226647350688,0
-0.010649235254121023,-0.26834253994316243,-0.4252507694921554,-0.008814090229451099,-0.18311755015290387,-0.014176665581203311,-0.0076117990969883625,0.1346151354189462,-0.00689339213736348,-0.14917882828494264,0.029988316159363655,-0.2037115682052852,-0.004945120468846587,-0.012017445270821579,0
-0.009413274738734307,-0.2461397338212012,-0.448435094263302,-0.00861662963091636,-0.22716196601382616,-0.015051971451547424,-0.0073879236729034415,-0.1279172395784503,-0.011934731086315454,-0.29740627814529014,0.002728619747162889,-0.3394747582671764,-0.006219607139026174,-0.010885226647350688,0
-0.006941353707960877,-0.12337127644094531,-0.24067653344997542,-0.007633160824621716,0.11223912091451264,-0.014525420263918638,-0.0064967690721767545,-0.18049199347910078,-0.012412183800143533,-0.18965228090638173,0.16575748372696317,-0.1420885599502582,-0.0032485635377631807,-0.009318453349804105,0
-0.006532042108709247,-0.16799456325468587,-0.07906153164717841,-0.008518857878243753,0.05322536110084357,-0.013824491734932188,-0.005492589985504357,0.08204038151829574,-0.010975144749699664,-0.31080982414330527,0.1927525228924377,0.0061918036634264345,-0.0028264932768593608,-0.009493293706951738,0
-0.008177314223347592,-0.23503833076022548,-0.0329179726366283,-0.008814090229451099,-0.12381591834016366,-0.013824491734932188,-0.006162042709952622,0.11720401562067098,-0.010975144749699664,-0.32447618476871415,0.23350973888738774,0.11716136149771032,-0.00027751993650018724,-0.010275831616127362,0
-0.00879529448104095,-0.10095079574915614,-0.04439758975633003,-0.008125853774363801,-0.02046987066647499,-0.015226348792905088,-0.006942346372540098,-0.057931365879555656,-0.007852978473979269,0.10680261881428942,0.4235336420326866,0.24064809288376576,0.008213540606384974,-0.009231881910828034,0
-0.006941353707960877,-0.0006028190606894465,-0.009733647865481646,-0.007730932577294323,0.21558516858817514,-0.015226348792905088,-0.005603440923643567,0.1346151354189462,-0.004253359484430792,0.3091698819214849,0.5458052900175369,0.22837163420797382,0.010762513946744146,-0.008013091848381226,0
-0.003855465278310002,-0.10095079574915614,0.10573779492676523,-0.007928393175829062,0.2302666405418246,-0.012771389359674618,-0.003710280784051181,0.4497222643169932,-0.004969538555173124,0.1338725254377134,0.5593028096002861,0.2777181837872088,0.00991009753746838,-0.008099663287357143,0
-0.0026235176217395645,-0.14557408256290658,0.18654529582816373,-0.008026164928501668,0.09755764896086316,-0.011020777618986701,-0.003821131722190293,0.4671333841152684,-0.0023295059022400114,0.2820999752980609,0.6000600255952362,0.4012049151732643,0.014577698069814026,-0.0074902682561336625,0
-0.004886769994071267,-0.10095079574915614,0.11721741204644649,-0.008321397279709014,0.08287617700721368,-0.012597012018316953,-0.00471228632291698,0.432311144518749,0.0010313867303942121,0.36304688054093914,0.5728003291830355,0.3022711011388146,0.01415562780891096,-0.006969142143081898,0
-0.00879529448104095,-0.16799456325468587,-0.06735682399573348,-0.009009633734796314,0.11223912091451264,-0.014699797605276302,-0.005047012685141112,0.2923393971208976,-0.004492085841345045,0.012452167573396102,0.355781386872238,0.09260844414608262,0.006516983675301566,-0.008274503644504931,0
-0.00879529448104095,-0.17909596631567146,-0.04439758975633003,-0.00841916903238162,0.023574545194473457,-0.01487759411018976,-0.005492589985504357,0.09945150131657096,-0.008573838453680805,-0.06823192304206442,0.17925500330968838,0.11716136149771032,0.0014190369945832194,-0.009927848381027586,0
-0.006532042108709247,-0.056327508935415584,0.03640991114506847,-0.007437617319276678,-0.005788398712825509,-0.013998869076289852,-0.004823137261056092,0.1346151354189462,-0.007852978473979269,0.012452167573396102,0.23350973888738774,0.16650791107692345,0.0005748964727755795,-0.01018926017715129,0
-0.009617930538360122,-0.12337127644094531,-0.1945329744394253,-0.009009633734796314,-0.10913444638651418,-0.014351042922560973,-0.004490584446638657,0.15202625521722143,-0.009772151147210846,-0.28400273214727506,0.1927525228924377,-0.006325369888367026,-0.004092704059570068,-0.010537243412251067,0
-0.013939779483397348,-0.38000959426244263,-0.4252507694921554,-0.011369575451265379,-0.3748403015475344,-0.01487759411018976,-0.005047012685141112,0.09945150131657096,-0.008330431187807774,-0.4322301820076226,0.029988316159363655,-0.16664147730186404,-0.008338234331012648,-0.0107120837693987,0
-0.013526455025329806,-0.34648771050967775,-0.390586827601307,-0.010386106644970736,-0.25681278192022244,-0.013650114393574525,-0.005157863623280224,0.3271616367174481,-0.0030503658819415473,-0.06823192304206442,0.1115027481492638,-0.04315474591580858,-0.004945120468846587,-0.009754705503075443,0
-0.010649235254121023,-0.056327508935415584,-0.3097793266999085,-0.009009633734796314,0.09755764896086316,-0.012949185864588385,-0.005492589985504357,0.37973639061809855,-0.004969538555173124,0.1609424320611374,0.355781386872238,0.12967853504950377,0.002693523664762806,-0.008709058318580624,0
-0.007768002624095963,-0.011704222121665133,-0.26363576768935837,-0.009207094333331053,0.008893073240823973,-0.014525420263918638,-0.006831495434400986,0.09945150131657096,-0.009533424790296592,-0.01435492442261021,0.30152665129456263,0.12967853504950377,0.0022714534038589863,-0.008883898675728258,0
-0.007150022366402605,-0.1568931601937102,-0.06735682399573348,-0.008518857878243753,-0.21248049406020283,-0.015752899980533874,-0.007722650035127574,0.08204038151829574,-0.007614252117065016,-0.14917882828494264,0.22001221930466253,0.12967853504950377,-0.0032485635377631807,-0.009493293706951738,0
-0.007768002624095963,-0.134472679501921,0.03640991114506847,-0.008911861982123705,0.008893073240823973,-0.014525420263918638,-0.006718470948455176,0.25717576301852235,-0.005212945821046581,-0.17598592028097285,0.355781386872238,0.22837163420797382,-0.00027751993650018724,-0.008883898675728258,0
-0.00735467816602842,-0.045226105874429996,-0.1598690325485769,-0.010483878397643342,0.03854388914719408,-0.013472317888661066,-0.005603440923643567,0.2046010091178719,-0.00569039853487466,-0.06823192304206442,0.4507933384448874,0.24064809288376576,0.006516983675301566,-0.008361075083480848,0
-0.008999950280666765,-0.10095079574915614,-0.2982997095802068,-0.009697870189883611,-0.3305080136875148,-0.014699797605276302,-0.005716465409589378,-0.057931365879555656,-0.00905129116750931,-0.0009513784246190055,0.28776447446508713,0.21609517553215996,0.003115593925666626,-0.009493293706951738,0
-0.013526455025329806,-0.27966161757396607,-0.3214840343513739,-0.00861662963091636,-0.3748403015475344,-0.015927277321891538,-0.007053197310679308,-0.3030526210786769,-0.01265559106601699,-0.13577528228695143,0.043485835742112955,0.10488490282189647,-0.007494093809205761,-0.011408050239598252,0
-0.014353103941465255,-0.3913286718932462,-0.4830990361541504,-0.010483878397643342,-0.24213130996657295,-0.016279451168162658,-0.008057376397351707,-0.3556273749793274,-0.012173457443229707,-0.3646868227627595,-0.05152611583053648,-0.1172949277226509,-0.011309277932275642,-0.011756033474697874,0
-0.012089851569133553,-0.4024300749542219,-0.7138168312068806,-0.012057811906352677,-0.3305080136875148,-0.015752899980533874,-0.006942346372540098,-0.0930949999819309,-0.00809170483089352,-0.29740627814529014,0.043485835742112955,-0.15436501862607208,-0.004945120468846587,-0.010275831616127362,0
-0.01311714342607854,-0.4024300749542219,-0.7484807730977289,-0.011565118956610592,-0.43385406136120347,-0.015051971451547424,-0.004936161747001901,0.4671333841152684,-0.00281163952502772,-0.027758470420625316,0.17925500330968838,-0.0679483781434159,0.00014455032440363277,-0.010623814851226984,0
-0.014144435283023163,-0.43595195870699666,-0.7484807730977289,-0.01225335541169789,-0.41917258940755403,-0.014351042922560973,-0.004155858084414425,0.8174041471157217,-0.00017160687209460674,0.1338725254377134,0.1927525228924377,-0.1420885599502582,-0.0036706337986662477,-0.012278857066945283,0
-0.011263202652998103,-0.3242849043877165,-0.7831447149885977,-0.012057811906352677,-0.3748403015475344,-0.01557852263917621,-0.005827316347728489,0.4497222643169932,-0.0030503658819415473,0.10680261881428942,0.09774057131978825,-0.12957138639844287,-0.006219607139026174,-0.011494621678574169,0
-0.009617930538360122,-0.17909596631567146,-0.6330093303055024,-0.009502326684538398,-0.27149425387384574,-0.017506930884777894,-0.008057376397351707,-0.1630808736808566,-0.010254284769998128,-0.06823192304206442,0.09774057131978825,0.0061918036634264345,-0.0032485635377631807,-0.010014419820003657,0
-0.011676527111066011,-0.29076302063495163,-0.5175378875132556,-0.009207094333331053,-0.25681278192022244,-0.018207859413764033,-0.008837680059939183,-0.28564150128043275,-0.01385390375954703,-0.20305582690439683,0.17925500330968838,-0.03087828723999473,-0.004092704059570068,-0.010537243412251067,0
-0.012912487626452727,-0.36890819120145707,-0.6447140379569474,-0.0109765713473856,-0.3895217735011839,-0.01733255354342023,-0.008948530998078293,-0.18049199347910078,-0.012894317422931243,-0.41882663600960746,0.043485835742112955,-0.17915865085367938,-0.010034791262096054,-0.01158119311755024,0
-0.010440566595679296,-0.17909596631567146,-0.7023372140871993,-0.011271803698592946,-0.3601588295939111,-0.017506930884777894,-0.00972883466066577,-0.2330667473797823,-0.012173457443229707,-0.5265806332485159,-0.1600355869859352,-0.018601828564180876,-0.009190650740288414,-0.010885226647350688,0
-0.007559333965654235,-0.045226105874429996,-0.6330093303055024,-0.01009087429376339,-0.3158265417338653,-0.018560033260035465,-0.009839685598804881,-0.1630808736808566,-0.011934731086315454,-0.35128327676474436,0.016490796576614355,0.16650791107692345,-0.005789260990653474,-0.010014419820003657,0
-0.008177314223347592,-0.14557408256290658,-0.6215297131858007,-0.010386106644970736,-0.4044911174539307,-0.017506930884777894,-0.00727707273476423,0.09945150131657096,-0.010975144749699664,-0.35128327676474436,0.1250002677320131,0.0061918036634264345,-0.010465137410468001,-0.010364100534298924,0
-0.010440566595679296,-0.2126178500684363,-0.7255215388583459,-0.011271803698592946,-0.4781863492212231,-0.015226348792905088,-0.006383744586230945,0.1346151354189462,-0.010254284769998128,-0.44563372800563766,-0.010768899835586411,-0.1172949277226509,-0.013436181011730995,-0.010973495565522405,0
-0.008590638681415136,-0.045226105874429996,-0.7023372140871993,-0.010583567243505648,-0.43385406136120347,-0.015404145297818545,-0.008279078273630029,-0.14566975388258138,-0.010731737483826635,-0.2703363715218662,0.029988316159363655,-0.006325369888367026,-0.0070637476608330614,-0.009754705503075443,0
-0.0013875571063528493,0.22273128957787092,-0.5292425951647005,-0.00930486608600366,-0.3305080136875148,-0.015404145297818545,-0.008279078273630029,-0.18049199347910078,-0.00905129116750931,-0.12210892166151863,0.13849778731473833,0.08009127059428915,-0.007494093809205761,-0.0074036968171577455,0
0.005610868669083622,0.4236449175246421,-0.4252507694921554,-0.00861662963091636,-0.3305080136875148,-0.014351042922560973,-0.007053197310679308,0.09945150131657096,-0.005212945821046581,-0.25693282552385105,0.08424305173706302,0.09260844414608262,-0.009612721001192235,-0.005575511723487303,0
0.011987301328010822,0.7586460804824727,-0.2982997095802068,-0.006649692018327072,-0.25681278192022244,-0.01698037969714911,-0.008724655573993274,-0.0053566119789051885,-0.00809170483089352,-0.32447618476871415,0.15225996414421386,0.16650791107692345,0.0014190369945832194,-0.0035741837518648728,0
0.021453635275404812,1.3724883673837718,-0.02121326498518337,-0.002815505639010803,-0.10913444638651418,-0.021014992693265625,-0.011624168348064755,-0.5655849960761045,-0.015773076432778182,-0.31080982414330527,0.3285216904600372,0.26544172511139497,0.010762513946744146,-0.0007003514736996114,0
0.0319512739385597,1.752112817155353,0.07107385303591685,-0.00163649332737112,-0.1387852622928843,-0.0197875129766507,-0.012404472010652232,-0.5833375103802045,-0.014092630116460858,-0.35128327676474436,0.396538602867188,0.3022711011388146,0.012881141138731372,0.0020852118862939332,0
0.03627312288359729,1.841359390782844,-0.0329179726366283,-0.0030129662375457163,-0.27149425387384574,-0.017859104731049017,-0.011511143862118945,-0.1630808736808566,-0.010731737483826635,-0.4051602753841986,0.4642908580276367,0.32706473336642194,0.019245298602160427,0.003565413744864445,0
0.03812305079786109,2.1093167862351447,-0.06735682399573348,-0.0022269580297858116,-0.19779902210655337,-0.01873441060139313,-0.010398287385114035,-0.39044961457587785,-0.018174382728797043,-0.6343346304874004,0.4507933384448874,0.32706473336642194,0.023068758612699188,0.004347951654040069,0
0.04347620445865958,2.466520755314937,0.09425817780706351,-0.0015387215746985132,-0.1387852622928843,-0.017681308226135246,-0.008837680059939183,-0.7932951314769816,-0.021535275361431693,-0.7420886277263088,0.4100361224499373,0.475104382104127,0.02221634220342342,0.00608956530873444,0
0.05026596157565432,2.5000426390677015,0.30201673862039013,-0.0020294974312510725,-0.301145069780242,-0.015927277321891538,-0.008057376397351707,-0.6181597499767549,-0.01673266276939397,-0.5804576318679701,0.477788377610386,0.6727312952970467,0.028158429405948655,0.008700288311580196,0
0.05314719420567902,2.488723561436908,0.3711195318703437,-0.0009482568722838216,-0.3748403015475344,-0.018382236755121698,-0.009394108298441638,-0.5481738762778293,-0.01769224910600976,-0.567054085869955,0.6135575451779854,0.7343543035520737,0.03664948994883382,0.010441901966274567,0
0.05479246632031736,2.812405646763935,0.40578347376119206,0.0007234483890981206,-0.3158265417338653,-0.020662818846994502,-0.010398287385114035,-0.6181597499767549,-0.017214796392181254,-0.5938611778659613,0.790083928740535,0.808494485358916,0.04386606382153939,0.010964725558521977,0
0.06035027578074167,3.1585082127827415,0.6250216516942204,0.0019024607007378036,-0.1387852622928843,-0.019260961789021914,-0.008724655573993274,-0.1630808736808566,-0.007852978473979269,-0.16258237428295774,1.1293745190361586,1.0306743159034633,0.05489782181731484,0.012791213172996774,0
0.06343616421039218,3.2031314995964917,0.7521978021379122,0.003376705363585007,-0.02046987066647499,-0.018560033260035465,-0.007944351911405896,0.23976464322024715,-0.004253359484430792,0.22822297667860672,1.495660148497281,1.2157840555445676,0.06678199622236607,0.014532826827691145,0
0.06137756763768629,3.113884925968991,0.6250216516942204,0.003967170065999699,-0.0501206865728451,-0.01943533913037927,-0.009059381936217505,0.09945150131657096,-0.00689339213736348,0.12046897943969831,1.5094223253267323,1.228301229096383,0.0705971803454367,0.014359683949739003,0
0.06240887235344719,3.169609615843727,0.6828699183562155,0.003771626560654485,-0.02046987066647499,-0.01943533913037927,-0.008724655573993274,-0.0930949999819309,-0.009533424790296592,-0.04142483104605811,1.387150677341882,1.2651306051238027,0.06805648289254565,0.01418484359259137,0
0.06529010498347225,3.1809286934745207,0.7751570363773157,0.0032789336109124,-0.005788398712825509,-0.018560033260035465,-0.0073879236729034415,-0.4256132486782531,-0.015052216453076646,-0.027758470420625316,1.455167589749033,1.3515472456064588,0.0705971803454367,0.015055650419938555,0
0.0648767805254047,3.0692616391552603,0.6828699183562155,0.002295464804617756,0.023574545194473457,-0.01733255354342023,-0.007944351911405896,-0.7758840116787064,-0.01673266276939397,0.0395220741968201,1.6451914928943319,1.3640644191582523,0.08248135475048791,0.016622423717485138,0
0.06652205264004268,3.1249863290299764,0.7866366534970174,0.0026884689084977088,0.20090369663455182,-0.015226348792905088,-0.008837680059939183,-0.8458698853776321,-0.015773076432778182,0.09339907281627431,1.7537009640497305,1.4134109687374874,0.09352138863373224,0.0178412137799321,0
0.06775801315542977,3.13630540666079,1.0290591562011924,0.0032789336109124,0.17125288072815553,-0.015051971451547424,-0.00850295369771495,-0.9158557590765578,-0.019854829045114368,0.0529256201948352,1.7671984836324557,1.4627575183167223,0.09436552915553914,0.01740496162666076,0
0.06405414446808554,2.8459275305167,1.0290591562011924,0.0019024607007378036,-0.15346673424653376,-0.018207859413764033,-0.008613804635854162,-1.0732386262726534,-0.02129654900451744,-0.01435492442261021,1.8757079547878546,1.4998276092201435,0.09606208608662255,0.017666373422784466,0
0.06446345606733717,2.667434383261718,0.9946203048421077,0.0007234483890981206,-0.3158265417338653,-0.020662818846994502,-0.009059381936217505,-0.933266878874802,-0.015773076432778182,0.1743459780591525,2.1064890739281035,1.6849373488612478,0.10710211996986688,0.020190524986654305,0
0.06652205264004268,2.6896371893836695,1.063723098092041,0.0006256766364255139,-0.18311755015290387,-0.0197875129766507,-0.007944351911405896,-0.6533233840791303,-0.012173457443229707,0.41692387916039336,2.242258241495703,1.7836304480197178,0.11474076410347626,0.020278793904825867,0
0.06405414446808554,2.6114920188171538,1.0060999219618094,0.0007234483890981206,-0.16814820620018325,-0.01943533913037927,-0.007164048248818421,-0.7233092577780559,-0.015295623718950102,0.3091698819214849,2.133748770340304,1.6355907992820347,0.11049523383203369,0.01836403737217951,0
0.062613528153073,2.3548537009956565,0.9482516552997939,3.5211934010822344e-05,-0.4044911174539307,-0.02118937003462329,-0.007833500973266686,-0.7758840116787064,-0.01673266276939397,-0.01435492442261021,1.9572223867777547,1.5368977001235646,0.10836833075257758,0.018798592046255357,0
0.06179089209575383,2.0979977086043315,0.9021080962892644,-0.00163649332737112,-0.4635048772675736,-0.020310645000723382,-0.008613804635854162,-0.7058981379797807,-0.016976070035267,-0.25693282552385105,1.780696003215205,1.4998276092201435,0.10836833075257758,0.01906000384237906,0
0.05993695132267376,2.053374421790601,0.8906284791695626,-0.0025221903809931573,-0.25681278192022244,-0.01803348207240668,-0.009170232874356617,-0.9684305129772083,-0.019616102688200115,-0.17598592028097285,1.8757079547878546,1.4875511505443297,0.11261386102402017,0.020017382108702162,0
0.06508143632503052,2.176142879170847,0.9946203048421077,-0.0014390327288363808,-0.15346673424653376,-0.020310645000723382,-0.00950495923658075,-1.1957992538722295,-0.017453522749095507,0.3091698819214849,2.486536880218677,1.734283898440483,0.13765669650430296,0.024369718766242447,0
0.06899397367081649,2.042273018729615,1.1330509818737375,-0.0011457174708185607,-0.3305080136875148,-0.023117778280224974,-0.008724655573993274,-0.8458698853776321,-0.00905129116750931,0.8211327761199729,2.948099118499175,2.0428803694676865,0.15802365556477044,0.02663245853398858,0
0.06323150841076636,1.6515471658970484,1.0522434809723595,-0.0021272691839235047,-0.49286782117487254,-0.021715921222252074,-0.00727707273476423,-0.4955991223771788,-0.00689339213736348,0.8347991367453818,2.7580752153538763,1.9689809025368237,0.14784431397827152,0.02341234049991919,0
0.056851062893023246,1.3724883673837718,0.8213005953878658,-0.0034059703414254946,-0.49286782117487254,-0.01943533913037927,-0.007053197310679308,-0.6007486301784798,-0.010010877504125099,0.538081422397293,2.513796576630878,1.7465603571162966,0.13638220983412336,0.021932138641348676,0
0.05582377103607826,1.1604733363760151,0.763677419257614,-0.004389439147720138,-0.49286782117487254,-0.01943533913037927,-0.007498774611042553,-0.37303849477760265,-0.004492085841345045,0.578554875018732,2.649301086951775,1.8454941711507464,0.14147188062737281,0.023673752296042894,0
0.05438315472106573,0.8925159409237142,0.7983413611484623,-0.005863683810567342,-0.5372001090348921,-0.019961890318008053,-0.008168227335490818,0.09945150131657096,-0.0004103332290088596,0.7133787788810645,2.5680513122085773,1.919393638081609,0.13765669650430296,0.022368390794620014,0
0.05170657789066685,0.7697474835434583,0.5788780926836703,-0.007830621423156455,-0.6405461567085808,-0.0197875129766507,-0.009283257360302426,-0.04052024608128043,-0.005933805800748117,0.6460982342635951,2.3372701930683526,1.660384431509642,0.13213667956268077,0.02054020570094957,0
0.05088394183334768,0.7138051190989043,0.25564808907809683,-0.00753538907194911,-0.6258646847549313,-0.0197875129766507,-0.00961798372252656,-0.25047786717802645,-0.007852978473979269,0.578554875018732,2.445779664223727,1.4504810596409086,0.14104981036646977,0.021322743610125195,0
0.05335185000530483,0.6469790261631926,0.3828242395217886,-0.005863683810567342,-0.43385406136120347,-0.01943533913037927,-0.008948530998078293,-0.07534248567779983,-0.00689339213736348,0.6999752328830494,2.730815518941675,1.5985207083786135,0.1503850114311618,0.02297608834664785,0
0.0574690431507166,0.691602312976943,0.7751570363773157,-0.005077675602807437,-0.28646359782659253,-0.017859104731049017,-0.008613804635854162,-0.11050611978020614,-0.007132118494277732,1.0235000392271685,3.083603628820048,1.9071171794057953,0.1648181591765722,0.02541366847154162,0
0.058705003666103324,0.7586460804824727,0.925292421060411,-0.005077675602807437,-0.25681278192022244,-0.01733255354342023,-0.008724655573993274,-0.37303849477760265,-0.0037712258616430833,1.2660779403283853,3.4093966995329223,2.129297009950321,0.18094786385306674,0.026371046737864876,0
0.05582377103607826,0.6805009099159673,0.8098209782681641,-0.0051754473554800435,-0.27149425387384574,-0.017681308226135246,-0.007944351911405896,-0.3030526210786769,0.001508839444222718,1.131254036466053,3.260130012382598,2.067674001695294,0.17500577665054076,0.024108306970118742,0
0.05252921394798566,0.4906886850301718,0.705829152595619,-0.006649692018327072,-0.3305080136875148,-0.017681308226135246,-0.006942346372540098,0.1346151354189462,0.003910145740241578,0.9830265866057293,2.907341902504225,1.7836304480197178,0.15972848838332274,0.022541533672572004,0
0.04944332551833515,0.17810800276412048,0.6482059764653672,-0.008321397279709014,-0.4781863492212231,-0.017859104731049017,-0.007164048248818421,0.432311144518749,0.004869732076856942,1.104184129842629,3.0293488932423487,1.722007439764691,0.16142504531440613,0.023150928703795485,1
0.0467667486879359,-0.08984939268818044,0.5327345336731202,-0.008518857878243753,-0.5962138688485612,-0.018560033260035465,-0.008613804635854162,0.41490002472047377,0.0024684257808385065,1.0907805838446138,3.0973658056495,1.8577706298265602,0.16226918583621303,0.02210697899849631,1
0.04429884051597875,-0.2461397338212012,0.39430385664149037,-0.009502326684538398,-0.7735430202886396,-0.020662818846994502,-0.010174411961029015,0.16977876952132145,-0.00689339213736348,0.6324318736381863,2.690058302946725,1.734283898440483,0.14954087090935417,0.019930810669726247,1
0.04224024394327286,-0.4246328810761832,0.3828242395217886,-0.011074343100058033,-0.8915705399159516,-0.023644329467853758,-0.01073084019953147,-0.2678889869763017,-0.014331356473375112,0.20115307005518274,2.513796576630878,1.5368977001235646,0.13935325343538635,0.019407987077478837,1
0.042035588143647044,-0.4805752455207372,0.47511135754288886,-0.010876882501523294,-0.7882244922422891,-0.023292155621582638,-0.010174411961029015,-0.7233092577780559,-0.017453522749095507,0.10680261881428942,2.6223060477862767,1.5862442497027998,0.13977532369629017,0.01984254175155453,1
0.042444899742898314,-0.46925616788993363,0.4636317404231871,-0.009697870189883611,-0.72921073242862,-0.021363747375980954,-0.008837680059939183,-0.933266878874802,-0.01793565637188279,0.24162652267662182,2.663063263781227,1.660384431509642,0.14784431397827152,0.01984254175155453,1
0.03915435551362199,-0.5809232222092138,0.3711195318703437,-0.010190563139625696,-0.8029059641959124,-0.021538124717338614,-0.008168227335490818,-0.6881456236756807,-0.010254284769998128,0.5112743304012867,2.7715727349366253,1.6478672579578266,0.15251191451061716,0.01906000384237906,1
0.03647777868322274,-0.6033437029009932,0.3364555899794953,-0.010876882501523294,-0.7735430202886396,-0.02224247240988086,-0.008057376397351707,0.06462926172002051,0.004631005719943114,0.8482026827433969,2.907341902504225,1.6107971670544055,0.1503850114311618,0.018623751689107567,1
0.03585979842552938,-0.7036916795894697,0.34816029763094025,-0.010583567243505648,-0.6848784445686004,-0.020310645000723382,-0.006942346372540098,0.747418273416796,0.011109383719338957,1.0503071312231747,2.866584686509275,1.5368977001235646,0.1520815683622452,0.01792778521890817,1
0.032773909995878876,-0.9827504781027562,0.3364555899794953,-0.01117211485273064,-0.5521694529876128,-0.01698037969714911,-0.005492589985504357,0.747418273416796,0.0077484910867043075,1.1446575824640681,2.798832431348826,1.437963886089115,0.15420847144170058,0.016361011921361433,1
0.029688021566227997,-0.9716490750417706,0.23268885483869337,-0.01117211485273064,-0.41917258940755403,-0.014699797605276302,-0.005270888109226034,0.6422687656154951,0.008469351066405844,1.2524115797029765,2.7850702545193506,1.4750339769925362,0.14613948115971923,0.014880810062790921,1
0.0286567168504671,-0.781836850155985,0.07107385303591685,-0.010190563139625696,-0.41917258940755403,-0.014176665581203311,-0.0064967690721767545,0.7300071536185208,0.010393204648596199,1.185131035085507,2.7173179993589263,1.4998276092201435,0.14147188062737281,0.01418484359259137,1
0.026806788936203304,-0.8935039044752652,-0.05587720687603176,-0.011074343100058033,-0.5521694529876128,-0.015404145297818545,-0.007722650035127574,0.4671333841152684,0.004631005719943114,1.0098336786017357,2.690058302946725,1.437963886089115,0.14613948115971923,0.014619398266667217,1
0.023102920248859068,-1.2285050674330957,0.0017459692542200816,-0.013532056569199794,-0.6555155006613015,-0.01733255354342023,-0.008168227335490818,0.04721814192174528,-0.0004103332290088596,0.9830265866057293,2.663063263781227,1.3515472456064588,0.1431767134459251,0.01366202000034396,1
0.02001301896039228,-1.4180996177490635,-0.04439758975633003,-0.014515525375494437,-0.72921073242862,-0.019083165284108146,-0.008279078273630029,0.08204038151829574,0.0022296994239242537,0.9154832273608423,2.513796576630878,1.228301229096383,0.13510772316394376,0.010876456640350415,1
0.01774976658806058,-1.5075638659463724,-0.2753404753408238,-0.01500630123204691,-0.8768890679623282,-0.019260961789021914,-0.007498774611042553,0.3097505169191728,0.004392279363028861,0.8077292301219579,2.4187846250582523,1.1418845886137268,0.13171460930177695,0.010355330527298496,1
0.01630915027304841,-1.6303323233266382,-0.3097793266999085,-0.0162850023895489,-0.906252011869601,-0.01803348207240668,-0.006272893648091833,0.5197081380159189,0.00535186569964465,0.8211327761199729,2.4730393606359278,1.2035075968687539,0.1270470087694313,0.011485851671573895,1
0.016517818931490142,-1.6303323233266382,-0.06735682399573348,-0.016580234740756244,-0.6405461567085808,-0.01733255354342023,-0.005603440923643567,0.6774323997178703,0.0077484910867043075,0.9154832273608423,2.5815488317913267,1.4134109687374874,0.1253504518383479,0.011399280232597824,1
0.01795843524650267,-1.4851433852545932,-0.02121326498518337,-0.01569453768713421,-0.43385406136120347,-0.017859104731049017,-0.006383744586230945,0.6774323997178703,0.007991898352577338,0.9964301326037205,2.6223060477862767,1.4627575183167223,0.1308621928925012,0.010528473405250639,1
0.01589983867379678,-1.6303323233266382,-0.3097793266999085,-0.01618723063687629,-0.5815323968949118,-0.01890878794275048,-0.006162042709952622,0.6074465260189756,0.0031892857605400424,0.8482026827433969,2.3915249286460276,1.2035075968687539,0.1278911492912382,0.008700288311580196,1
0.01055069787181457,-1.9651158117146508,-0.4367303866118571,-0.01884048761136318,-0.6848784445686004,-0.01943533913037927,-0.004377559960692748,0.5197081380159189,0.0010313867303942121,0.6460982342635951,2.214998545083478,1.0677444068068844,0.11643732103455892,0.007481498249133389,1
0.010342029213372477,-1.9093911218399149,-0.3214840343513739,-0.01923349171524313,-0.5521694529876128,-0.019260961789021914,-0.0042667090225536365,0.3971475104163427,0.004148872097155406,0.9291495879862751,2.4187846250582523,1.2651306051238027,0.11940836463582191,0.009571095138927382,1
0.013223261843397538,-1.7531007807068941,-0.2982997095802068,-0.01746401470118867,-0.4781863492212231,-0.01960971647173693,-0.005270888109226034,0.3271616367174481,0.004148872097155406,1.2122009417089312,2.676560783363976,1.3640644191582523,0.1253504518383479,0.010441901966274567,1
0.011373333929133743,-1.8312459512734094,-0.3791072104816053,-0.01766147529972341,-0.4635048772675736,-0.017859104731049017,-0.005157863623280224,0.5022970182176747,0.006068044770386983,1.1580611284620832,2.690058302946725,1.2651306051238027,0.12280147849798873,0.008527145433628208,1
0.010755353671440385,-1.8201445482124239,-0.2521561505696771,-0.01884048761136318,-0.4635048772675736,-0.01557852263917621,-0.004377559960692748,0.9048011406129226,0.013754097281230847,1.4009018441907177,2.7580752153538763,1.4134109687374874,0.1278911492912382,0.009396254781779748,1
0.014254566559158438,-1.7195788969541292,-0.06735682399573348,-0.018251940002138187,-0.5962138688485612,-0.015404145297818545,-0.003597256298105371,1.290235537715751,0.01783116898460783,1.670286837287965,2.8935797256747495,1.5985207083786135,0.1325587498235846,0.010703313762398272,1
0.013223261843397538,-1.7195788969541292,-0.12520509065772853,-0.018349711754810708,-0.6701969726149509,-0.01487759411018976,-0.0028169526355179943,1.4476184049118468,0.015191136331674716,1.427708936186748,2.8258274705143007,1.4504810596409086,0.1249201056899752,0.008961700107703901,1
0.008696757098734497,-1.7977240675206445,-0.12520509065772853,-0.019135719962570526,-0.4635048772675736,-0.012597012018316953,-0.0017040961585128858,1.3076466575139953,0.012551103678742029,1.2928850323244157,2.690058302946725,1.3022006960272239,0.12025250515762956,0.007656338606281022,1
0.009314737356427854,-1.8201445482124239,-0.04439758975633003,-0.017759247052396013,-0.301145069780242,-0.011369532301701717,-0.0006999170718404881,1.2024971497126944,0.0139928236381451,1.454778842810172,2.663063263781227,1.3640644191582523,0.11983043489672573,0.008004321841380798,1
0.010755353671440385,-1.8201445482124239,-0.17134864966827865,-0.017170699443170935,-0.5521694529876128,-0.013650114393574525,-0.0005890661337014749,1.167674910116175,0.0139928236381451,1.4009018441907177,2.554289135379126,1.28992423735141,0.11346627743329668,0.007481498249133389,1
0.007460796583347782,-1.9204925249009004,-0.22897182579851,-0.01923349171524313,-0.8178753081486592,-0.016105073826804994,-0.0011454943722038315,1.0451142825165989,0.009672344668894663,1.1580611284620832,2.3237726734856032,1.1418845886137268,0.1075241902307707,0.006350977104858145,1
0.003756927896003549,-2.0656814629729454,-0.1945329744394253,-0.019921728170330343,-0.72921073242862,-0.015404145297818545,-0.0015910716725671748,0.9573758945135731,0.005590592056558903,0.9964301326037205,2.1745059863352543,1.191231138192962,0.10242624355005235,0.005741582073634664,1
0.0023163115809910185,-2.132725230478475,-0.3559228857104586,-0.019135719962570526,-0.5815323968949118,-0.012949185864588385,-0.0015910716725671748,1.167674910116175,0.01159151734212624,1.06371067722119,2.242258241495703,1.2157840555445676,0.0998855460971613,0.005132187042411183,1
0.0002577150082854957,-2.166029439661412,-0.47139432850270546,-0.019628412912312695,-0.6405461567085808,-0.012597012018316953,-0.001369369796288753,1.5176042786107724,0.02047120163754094,1.3333584849458546,2.3780274090633027,1.1541610472895407,0.10624970356059112,0.004434523093016139,1
-0.0024148489632978367,-2.221971804105966,-0.4022915352527724,-0.020414421120072513,-0.6995599165222499,-0.013998869076289852,-0.0015910716725671748,1.5527679127131477,0.01807457625048086,1.468182388808187,2.364265232233827,1.191231138192962,0.10710211996986688,0.003913396979964221,1
-0.003650809478684552,-2.255493687858731,-0.3791072104816053,-0.020316649367399995,-0.72921073242862,-0.014176665581203311,-0.002036648972930518,1.1325112760137688,0.009190211046107379,1.2390080337049614,2.2287607219129537,1.178954679517148,0.09775864301770595,0.003565413744864445,1
-0.003855465278310002,-2.2106527264751628,-0.33296365147107565,-0.020216960521537774,-0.8029059641959124,-0.013824491734932188,-0.0027061016973787834,0.7999930273174465,0.00582931841347273,0.9559566799822814,2.160743809505803,1.0554679481310707,0.09394345889463607,0.0031291615915931066,1
-0.0032374850206166443,-2.2106527264751628,-0.2753404753408238,-0.020316649367399995,-0.7735430202886396,-0.013824491734932188,-0.002036648972930518,1.1151001562155245,0.011352790985211986,0.9830265866057293,2.092991554345354,1.0429507745792772,0.09521794556481565,0.0029560187136411188,1
-0.0022101931636720217,-2.266595090919717,-0.33296365147107565,-0.020414421120072513,-0.6555155006613015,-0.013998869076289852,-0.0009237924959256074,1.3950436510111963,0.014231549995058927,1.1985345810835222,2.0794940347626047,1.0677444068068844,0.09394345889463607,0.002867749795469402,1
-0.001592212905978664,-2.110304749786686,-0.3559228857104586,-0.019628412912312695,-0.5521694529876128,-0.013998869076289852,-0.0019257980347913073,1.0976890364172494,0.010393204648596199,1.171727489087492,2.160743809505803,0.956534134096621,0.09436552915553914,0.003215733030569178,1
-0.0013875571063528493,-1.9986376954674157,-0.3097793266999085,-0.019037948209898004,-0.5372001090348921,-0.013472317888661066,-0.0025952507592395726,1.167674910116175,0.010149797382723168,1.0369035852251836,2.052234338350404,0.8332881175865452,0.09521794556481565,0.002781178356493331,1
-0.0020055373640462068,-2.199551323414187,-0.24067653344997542,-0.019628412912312695,-0.49286782117487254,-0.01312356320594574,-0.0011454943722038315,1.4127961653152963,0.011830243699040493,0.9964301326037205,1.80795569962743,0.907187584517386,0.08842344195301391,0.0018238000901702285,1
-0.001592212905978664,-2.09920334672571,-0.24067653344997542,-0.01874271585869066,-0.3895217735011839,-0.012771389359674618,-0.0010346434340646206,1.062525402314874,0.007509764729790055,0.9154832273608423,1.80795569962743,1.0306743159034633,0.08078479781940451,0.0015623882940465237,1
-0.00035625239059194864,-1.641433726387614,-0.2982997095802068,-0.017071010597308717,-0.4635048772675736,-0.012597012018316953,-0.0027061016973787834,0.747418273416796,0.003910145740241578,0.8211327761199729,1.8214532192101551,1.0183978572276495,0.07653926754796193,0.0009529932628230429,1
-0.0017968687056044788,-1.552187152760123,-0.34444326859075686,-0.01766147529972341,-0.5668509249412622,-0.012597012018316953,-0.0025952507592395726,1.0099506484142236,0.007509764729790055,0.6595017802616103,1.4414054129195815,0.907187584517386,0.06550750955218648,-0.0012231750659471754,1
-0.005500737392948347,-1.6638542070794031,-0.33296365147107565,-0.017858935898258235,-0.49286782117487254,-0.012949185864588385,-0.0017040961585128858,1.167674910116175,0.008951484689193127,0.565151329020717,1.2651436866037582,0.7220778448762598,0.053201264886231434,-0.00287651980246983,1
-0.004886769994071267,-1.4516215015018283,-0.28682009246052553,-0.0155967659344616,-0.3454773576402616,-0.013998869076289852,-0.0027061016973787834,0.9225536549170227,0.008469351066405844,0.7133787788810645,1.4821626289145315,0.5985911134902043,0.053623335147135257,-0.002267124771246349,1
-0.003446153679058737,-1.2953311603687976,-0.3214840343513739,-0.015399305335926861,-0.4044911174539307,-0.014699797605276302,-0.003821131722190293,0.7122546393144208,0.007509764729790055,0.7809221381259276,1.4686651093317822,0.6111082870419978,0.058290935679481654,-0.0031379315985935346,1
-0.008381970022973407,-1.5632885558211085,-0.45991471138300377,-0.01736624294851606,-0.5078371651275931,-0.014176665581203311,-0.003821131722190293,0.5371192578141941,0.001990973067010001,0.4439937857838174,1.1563695582016331,0.5615210225867832,0.05107436180677608,-0.005575511723487303,1
-0.013939779483397348,-1.8201445482124239,-0.5175378875132556,-0.017858935898258235,-0.3895217735011839,-0.014176665581203311,-0.004490584446638657,0.3623252708198233,-0.0030503658819415473,0.12046897943969831,0.9528481354736091,0.4505514647524993,0.042161231002987104,-0.0057503520806349365,1
-0.01332179922570399,-1.7531007807068941,-0.41377115237245365,-0.017071010597308717,-0.28646359782659253,-0.013998869076289852,-0.005047012685141112,0.4671333841152684,0.001508839444222718,0.18774952405716763,0.9801078318858099,0.48762155565592047,0.042161231002987104,-0.005052688131239894,1
-0.009413274738734307,-1.5410857496991472,-0.41377115237245365,-0.01618723063687629,-0.301145069780242,-0.012771389359674618,-0.0032647034836878375,0.7648293932150713,0.00582931841347273,0.36304688054093914,1.0613576066290078,0.5985911134902043,0.04471020434334628,-0.005575511723487303,1
-0.009617930538360122,-1.5075638659463724,-0.5983453884146541,-0.01618723063687629,-0.3895217735011839,-0.012771389359674618,-0.0015910716725671748,0.7999930273174465,0.0010313867303942121,0.2820999752980609,0.9393506158908598,0.4998980143317343,0.04173916074208404,-0.006969142143081898,1
-0.012912487626452727,-1.5857090365128876,-0.6215297131858007,-0.017563703547050887,-0.4488234053139503,-0.013472317888661066,-0.002149673458876229,0.747418273416796,-0.0013699195656246483,0.10680261881428942,0.790083928740535,0.3886877416214708,0.03537500327865423,-0.0074036968171577455,1
-0.010853891053746838,-1.5075638659463724,-0.4367303866118571,-0.017071010597308717,-0.22716196601382616,-0.0124226346769596,-0.0027061016973787834,0.7999930273174465,0.001990973067010001,0.29550352129607604,1.1158769994534095,0.5740381961385767,0.04046467407190445,-0.004966116692263822,1
-0.00570940605139044,-1.3623749278743373,-0.3214840343513739,-0.014711068880839564,-0.10913444638651418,-0.011721706147973151,-0.0033755544218270483,0.7648293932150713,0.004869732076856942,0.6865716868850342,1.5229198449094816,0.8207709440347298,0.05574196233912248,-0.0030513601596174633,1
-0.007559333965654235,-1.4740419821936075,-0.4022915352527724,-0.01490852947937439,-0.3305080136875148,-0.01312356320594574,-0.004377559960692748,0.7999930273174465,0.0070323120159619746,0.8482026827433969,1.4821626289145315,0.7343543035520737,0.05871300594038472,-0.00453156201818813,1
-0.01188118291069146,-1.6638542070794031,-0.552201829404104,-0.017071010597308717,-0.5225186370812427,-0.014176665581203311,-0.00471228632291698,0.7999930273174465,0.004148872097155406,0.6999752328830494,1.305636245351982,0.6111082870419978,0.0472591776837062,-0.006271478193686855,1
-0.01188118291069146,-1.6525351294485995,-0.552201829404104,-0.017563703547050887,-0.43385406136120347,-0.014176665581203311,-0.004601435384777769,0.4497222643169932,-0.003532499504729256,0.45739733178183245,1.2921387257692327,0.6111082870419978,0.04301364741226362,-0.0060100663975631505,1
-0.01188118291069146,-1.6303323233266382,-0.47139432850270546,-0.01687546709196359,-0.28646359782659253,-0.012597012018316953,-0.004601435384777769,0.2046010091178719,-0.004492085841345045,0.41692387916039336,1.3328959417641828,0.5615210225867832,0.05023022128496844,-0.005227528488387527,1
-0.012089851569133553,-1.6638542070794031,-0.45991471138300377,-0.016678006493428852,-0.25681278192022244,-0.009266746714742681,-0.0033755544218270483,0.5197081380159189,0.0036714193833273256,0.5246778763992779,1.3328959417641828,0.5492445639109693,0.05192677821605185,-0.005488940284511232,1
-0.012703818968010632,-1.7084774938931435,-0.6100500960660991,-0.017268471195843543,-0.3748403015475344,-0.009793297902371467,-0.0032647034836878375,0.7822405130133464,0.00535186569964465,0.41692387916039336,1.0751197834584594,0.4998980143317343,0.041317090481180214,-0.006794301785934265,1
-0.014557759741090706,-1.730680300015105,-0.7138168312068806,-0.017170699443170935,-0.3895217735011839,-0.014699797605276302,-0.005270888109226034,0.5548717721183252,0.0003105267506926763,0.32257342791950006,0.8850958803131604,0.3886877416214708,0.03664948994883382,-0.006969142143081898,1
-0.012912487626452727,-1.5297666720683436,-0.5753861541752506,-0.014810757726701783,-0.15346673424653376,-0.015226348792905088,-0.005827316347728489,0.3623252708198233,6.711948481964606e-05,0.47080087777982366,1.1971267741965832,0.48762155565592047,0.045562620752622796,-0.005314099927363598,1
-0.008177314223347592,-1.373476330935313,-0.34444326859075686,-0.013925060673079746,-0.16814820620018325,-0.012070460830688167,-0.004601435384777769,0.6074465260189756,0.0031892857605400424,0.5922212356441648,1.414410373754083,0.7591479357797029,0.05023022128496844,-0.0047047048961401175,1
-0.009413274738734307,-1.6192309202656525,-0.3097793266999085,-0.016678006493428852,-0.49286782117487254,-0.012597012018316953,-0.003821131722190293,0.9048011406129226,0.0036714193833273256,0.5112743304012867,1.183629254613858,0.7714243944554948,0.041317090481180214,-0.006446318550834489,1
-0.014967071340342336,-1.8982897187789392,-0.5753861541752506,-0.01815225115627588,-0.72921073242862,-0.015051971451547424,-0.00471228632291698,0.7648293932150713,0.0017475658011369708,0.349643334542924,0.871333703483709,0.46282792342831314,0.032403959677391236,-0.008361075083480848,1
-0.01682101211342241,-1.7977240675206445,-0.7484807730977289,-0.017071010597308717,-0.7735430202886396,-0.014351042922560973,-0.005492589985504357,0.4848858984193995,0.0005492531076069291,0.14727607143572852,0.7220670163333601,0.17902508462873878,0.029432916076128992,-0.009231881910828034,1
-0.015380395798409878,-1.6303323233266382,-0.6447140379569474,-0.016482462988083726,-0.5815323968949118,-0.012244838172045832,-0.0034864053599661603,0.5022970182176747,0.0003105267506926763,0.1338725254377134,0.7358291931628357,0.20357800198034462,0.029854986337032062,-0.0090570415536804,1
-0.015175739998784063,-1.5743899588820842,-0.41377115237245365,-0.015203761830581735,-0.3158265417338653,-0.012070460830688167,-0.0011454943722038315,0.6422687656154951,0.001990973067010001,0.33597697391751513,0.8985933998959097,0.4998980143317343,0.03452258686937846,-0.008361075083480848,1
-0.013939779483397348,-1.5297666720683436,-0.3097793266999085,-0.014122521271614485,-0.28646359782659253,-0.012597012018316953,-0.0017040961585128858,0.7122546393144208,0.004631005719943114,0.538081422397293,1.0343625674635093,0.746871477103889,0.04089502022027639,-0.006880873224910336,1
-0.012294507368759368,-1.4405200984408426,-0.3559228857104586,-0.014613297128167044,-0.3158265417338653,-0.01066860377271558,-0.001480220734427964,0.852567781218097,0.004631005719943114,0.5922212356441648,1.142872038618908,0.7591479357797029,0.044288134082443205,-0.006184906754710784,1
-0.013939779483397348,-1.3847954085661165,-0.367627593361924,-0.014810757726701783,-0.22716196601382616,-0.008740195527113895,0.0006368148292493444,0.9751284088176732,0.0036714193833273256,0.578554875018732,1.3193984221814574,0.6479376630694175,0.04343571767316669,-0.007142285021034041,1
-0.015175739998784063,-1.4069982146880777,-0.367627593361924,-0.014122521271614485,-0.25681278192022244,-0.010316429926444146,-0.00036519070961635547,0.8873900208146474,0.004148872097155406,0.6190283276401711,1.2651436866037582,0.5492445639109693,0.04343571767316669,-0.008013091848381226,1
-0.012294507368759368,-1.373476330935313,-0.3791072104816053,-0.0136298283218724,-0.3305080136875148,-0.011896083489330814,-0.002149673458876229,0.7999930273174465,0.00535186569964465,0.605624781642156,1.1021148226239579,0.5615210225867832,0.04301364741226362,-0.0074036968171577455,1
-0.012912487626452727,-1.3623749278743373,-0.33296365147107565,-0.013532056569199794,-0.3748403015475344,-0.012244838172045832,-0.002149673458876229,0.7822405130133464,0.0024684257808385065,0.565151329020717,1.183629254613858,0.7220778448762598,0.04004260381100063,-0.007142285021034041,1
-0.017438992371115767,-1.4851433852545932,-0.390586827601307,-0.015105990077909128,-0.5815323968949118,-0.013998869076289852,-0.0033755544218270483,0.5722828919165693,-0.00281163952502772,0.349643334542924,1.0343625674635093,0.6727312952970467,0.03282602993829505,-0.0090570415536804,1
-0.01867495288650248,-1.5632885558211085,-0.5983453884146541,-0.016382774142221505,-0.7145292604749706,-0.015226348792905088,-0.004155858084414425,0.37973639061809855,-0.0018520531884119314,0.066591980820268,0.5728003291830355,0.32706473336642194,0.023490828873603008,-0.010450671973274995,1
-0.017025667913048225,-1.5632885558211085,-0.5868657712949523,-0.015105990077909128,-0.5372001090348921,-0.014351042922560973,-0.002929977121463705,0.5371192578141941,0.0024684257808385065,-0.0009513784246190055,0.477788377610386,0.22837163420797382,0.023068758612699188,-0.009927848381027586,1
-0.016616356313796595,-1.5297666720683436,-0.367627593361924,-0.014417753622821917,-0.41917258940755403,-0.012244838172045832,-0.00226052439701544,0.747418273416796,0.001508839444222718,0.0395220741968201,0.7220670163333601,0.4012049151732643,0.026461872474866,-0.009754705503075443,1
-0.01682101211342241,-1.4962447883155687,-0.3559228857104586,-0.015301533583254255,-0.49286782117487254,-0.01066860377271558,-0.002929977121463705,0.6422687656154951,6.711948481964606e-05,0.1743459780591525,0.8035814483232603,0.42575783252489197,0.027314288884141766,-0.009841276942051514,1
-0.015175739998784063,-1.4740419821936075,-0.4022915352527724,-0.015203761830581735,-0.43385406136120347,-0.01066860377271558,-0.0027061016973787834,0.5371192578141941,0.0022296994239242537,0.45739733178183245,0.9528481354736091,0.46282792342831314,0.03198188941648817,-0.008013091848381226,1
-0.014353103941465255,-1.5857090365128876,-0.3214840343513739,-0.014810757726701783,-0.41917258940755403,-0.011896083489330814,-0.002036648972930518,0.5371192578141941,0.0036714193833273256,0.5922212356441648,1.142872038618908,0.6604548366212328,0.03707156020973763,-0.007578537174305379,1
-0.017438992371115767,-1.6749556101403786,-0.33296365147107565,-0.015105990077909128,-0.5078371651275931,-0.0124226346769596,-0.0015910716725671748,0.6422687656154951,0.004869732076856942,0.40352033316237823,1.0478600870462584,0.6727312952970467,0.03112947300721165,-0.009754705503075443,1
-0.019702244743447467,-1.6525351294485995,-0.4367303866118571,-0.015203761830581735,-0.43385406136120347,-0.011195154960344365,-0.0009237924959256074,0.8174041471157217,0.004869732076856942,0.26869642930004584,0.8035814483232603,0.48762155565592047,0.02221634220342342,-0.0107120837693987,1
-0.017643648170741582,-1.6638542070794031,-0.41377115237245365,-0.015301533583254255,-0.3305080136875148,-0.009441124056100344,-0.0005890661337014749,0.9225536549170227,0.004148872097155406,0.349643334542924,0.8170789679060095,0.475104382104127,0.02221634220342342,-0.009666436584903881,1
-0.016616356313796595,-1.6192309202656525,-0.3559228857104586,-0.01500630123204691,-0.3454773576402616,-0.009088950209829222,-0.0005890661337014749,1.0273617682124678,0.008951484689193127,0.5112743304012867,0.9663456550563584,0.5863146548143905,0.028580499666852475,-0.008795629757556695,1
-0.018056972628809124,-1.518665269007358,-0.367627593361924,-0.014613297128167044,-0.28646359782659253,-0.009441124056100344,-0.0009237924959256074,1.0451142825165989,0.01159151734212624,0.5246778763992779,0.9801078318858099,0.5740381961385767,0.032403959677391236,-0.008709058318580624,1
-0.015380395798409878,-1.4180996177490635,-0.34444326859075686,-0.0136298283218724,-0.27149425387384574,-0.010494226431357915,-0.0025952507592395726,0.6074465260189756,0.001270113087308465,0.3764504265389543,0.9258530963081105,0.5740381961385767,0.029854986337032062,-0.008622486879604553,1
-0.01188118291069146,-1.2731283542468363,-0.18282826678798036,-0.012155583659025283,-0.3601588295939111,-0.011543909643059382,-0.004155858084414425,0.2046010091178719,-0.006172532157661944,0.3091698819214849,1.0343625674635093,0.7343543035520737,0.03155154326811547,-0.007838251491233439,1
-0.012703818968010632,-1.2060845867413066,-0.14816432489713197,-0.012057811906352677,-0.3305080136875148,-0.011543909643059382,-0.0031516789977420277,0.3271616367174481,-0.0011311932087103955,0.2552928833020307,1.0886173030412085,0.7714243944554948,0.03495293301775041,-0.007578537174305379,1
-0.014557759741090706,-1.4069982146880777,-0.33296365147107565,-0.013925060673079746,-0.3305080136875148,-0.011543909643059382,-0.0012563453103430424,0.7648293932150713,0.001990973067010001,0.14727607143572852,0.7763217519110596,0.5740381961385767,0.027736359145045585,-0.008970470114704329,1
-0.015175739998784063,-1.5743899588820842,-0.41377115237245365,-0.014417753622821917,-0.3305080136875148,-0.010494226431357915,-0.0010346434340646206,0.9751284088176732,-0.00017160687209460674,0.14727607143572852,0.5050480740225868,0.48762155565592047,0.01797081193198084,-0.009841276942051514,1
-0.01579372025647742,-1.5743899588820842,-0.33296365147107565,-0.014024749518941965,-0.3601588295939111,-0.008740195527113895,-0.0015910716725671748,0.7822405130133464,0.0005492531076069291,0.10680261881428942,0.5458052900175369,0.5369681052351555,0.01372528166053826,-0.00957986514592781,1
-0.014967071340342336,-1.4180996177490635,-0.24067653344997542,-0.0136298283218724,-0.4488234053139503,-0.009615501397458008,-0.001480220734427964,0.5548717721183252,0.002711833046711537,0.0529256201948352,0.5728003291830355,0.5369681052351555,0.012881141138731372,-0.008970470114704329,1
-0.009822586337985937,-1.1503598968665805,-0.1137254735380268,-0.011762579555145331,-0.301145069780242,-0.00996767524372913,-0.0015910716725671748,0.5896940117148446,0.001990973067010001,0.18774952405716763,0.6270550647607107,0.6233847457178117,0.020941855533243833,-0.006794301785934265,1
-0.003855465278310002,-1.0386928425473003,-0.0329179726366283,-0.010876882501523294,-0.06480215852649458,-0.007687093151856323,-0.001480220734427964,0.747418273416796,0.001270113087308465,0.3091698819214849,0.8578361839009596,0.808494485358916,0.033248100199198875,-0.00400873842594072,1
0.0010843639244205816,-0.9494462689198093,0.10573779492676523,-0.011565118956610592,-0.07977150247921522,-0.008039266998127445,-0.0017040961585128858,0.8699789010163722,0.001990973067010001,0.29550352129607604,1.1021148226239579,0.9319812167449933,0.03962053355009681,-0.0018325700971705018,1
0.006638160526028609,-0.7372135633422345,0.359639914750642,-0.009993102541090957,-0.15346673424653376,-0.00996767524372913,-0.0024843998211003617,0.9399647747152978,0.0010313867303942121,0.41692387916039336,1.3601556381764075,1.1048144977103056,0.0472591776837062,-4.385003500213876e-06,1
0.008901412898360312,-0.7372135633422345,0.42896779853233874,-0.00841916903238162,-0.22716196601382616,-0.009793297902371467,-0.0019257980347913073,0.6248576458172198,-0.0023295059022400114,0.47080087777982366,1.495660148497281,1.2528541464479888,0.05277091873785949,0.0003435982315995621,1
0.007874121041415324,-0.8488806176615147,0.3364555899794953,-0.00989533078841835,-0.3454773576402616,-0.010316429926444146,-0.001480220734427964,0.37973639061809855,-0.0011311932087103955,0.3091698819214849,1.3601556381764075,1.178954679517148,0.0472591776837062,8.218643547585732e-05,1
0.00911008155680204,-0.6479669897147435,0.3364555899794953,-0.010483878397643342,-0.3748403015475344,-0.011020777618986701,-0.0032647034836878375,0.5896940117148446,0.0024684257808385065,0.1743459780591525,1.1293745190361586,1.1048144977103056,0.045132274604250094,0.0012144050589467477,1
0.013427917643023353,-0.547401338456449,0.34816029763094025,-0.009402637838676266,-0.3601588295939111,-0.010142052585086794,-0.004601435384777769,0.6248576458172198,-0.0008924668517961427,0.10680261881428942,1.1563695582016331,1.1048144977103056,0.05023022128496844,0.002258354764245921,1
0.014663878158410068,-0.692590276528494,0.32497597285979357,-0.009600098437211005,-0.3748403015475344,-0.009088950209829222,-0.0034864053599661603,0.25717576301852235,-0.004253359484430792,0.07999552681825921,1.1971267741965832,0.9813277663242284,0.0468288315353335,0.0013892454160943813,1
0.013841242101090896,-0.5698218191482283,0.3711195318703437,-0.009502326684538398,-0.22716196601382616,-0.009266746714742681,-0.002929977121463705,0.22201212891614713,-0.0006490595859231124,0.1338725254377134,1.0886173030412085,0.8455645762623372,0.04173916074208404,0.0009529932628230429,1
0.017340454988809314,-0.3242849043877165,0.5905828003351358,-0.006551920265654466,-0.16814820620018325,-0.011721706147973151,-0.0030408280596029157,0.432311144518749,-0.0011311932087103955,0.066591980820268,1.1971267741965832,1.0306743159034633,0.04598469101352661,0.002694606917517414,1
0.020221687618834375,-0.35780678814048134,0.763677419257614,-0.005668140305222128,-0.3158265417338653,-0.014351042922560973,-0.002149673458876229,0.3623252708198233,-0.009772151147210846,-0.10870537566350352,1.3193984221814574,1.2651306051238027,0.04810331820551309,0.0037385566228165874,1
0.018367746845753936,-0.49167664858172283,0.5905828003351358,-0.007633160824621716,-0.3158265417338653,-0.0124226346769596,-0.0009237924959256074,0.18718988931959668,-0.01265559106601699,-0.20305582690439683,1.1021148226239579,1.228301229096383,0.04301364741226362,0.002781178356493331,1
0.016104494473422597,-0.5027780516426985,0.3828242395217886,-0.008518857878243753,-0.10913444638651418,-0.008914572868471558,-0.0009237924959256074,0.22201212891614713,-0.0066499848714904495,-0.23012573352782084,0.8850958803131604,1.0183978572276495,0.04004260381100063,0.0014758168550704524,1
0.01404589790071671,-0.6703874704065327,0.2903120309689452,-0.009600098437211005,-0.27149425387384574,-0.008388021680842772,-0.001369369796288753,0.3623252708198233,-0.00281163952502772,-0.23012573352782084,0.9801078318858099,0.8826346671657583,0.04004260381100063,0.0003435982315995621,1
0.011987301328010822,-0.8599820207224904,0.03640991114506847,-0.011664807802472725,-0.49286782117487254,-0.009441124056100344,-0.0017040961585128858,0.3971475104163427,-0.0037712258616430833,-0.06823192304206442,1.0071028710513084,0.8701174936139648,0.0425915771513598,0.0006050100277232669,1
0.01404589790071671,-0.6590683927757292,0.04788952826474972,-0.010779110748850688,-0.18311755015290387,-0.008914572868471558,-0.00226052439701544,0.3971475104163427,-0.003293773147815003,0.026118528198828893,0.9936053514685591,0.9936042250000422,0.045132274604250094,0.001998640447317862,1
0.017340454988809314,-0.46925616788993363,0.3364555899794953,-0.008518857878243753,0.08287617700721368,-0.006986164622869873,-0.0019257980347913073,0.41490002472047377,-0.0023295059022400114,-0.01435492442261021,1.1158769994534095,1.1170909563861195,0.04301364741226362,0.0024331951213937093,1
0.01630915027304841,-0.5809232222092138,0.2095045300675467,-0.009502326684538398,-0.15346673424653376,-0.006633990776598752,-0.0012563453103430424,0.37973639061809855,-0.00281163952502772,0.066591980820268,1.1293745190361586,1.0925380390344919,0.03962053355009681,0.0007798503848709005,1
0.014663878158410068,-0.6703874704065327,0.09425817780706351,-0.011565118956610592,-0.3305080136875148,-0.009615501397458008,-0.0015910716725671748,0.23976464322024715,-0.006411258514576196,0.12046897943969831,1.1158769994534095,1.0306743159034633,0.03962053355009681,-0.0007886203918713282,1
0.016517818931490142,-0.6255465090229544,0.2903120309689452,-0.01117211485273064,-0.22716196601382616,-0.012244838172045832,-0.0028169526355179943,-0.057931365879555656,-0.01145259746352817,-0.027758470420625316,1.1971267741965832,1.0677444068068844,0.04301364741226362,0.0003435982315995621,1
0.01795843524650267,-0.6144451059619787,0.23268885483869337,-0.009993102541090957,-0.19779902210655337,-0.01066860377271558,-0.003597256298105371,-0.25047786717802645,-0.012173457443229707,-0.12210892166151863,1.183629254613858,0.956534134096621,0.046406761274429685,0.0017372286511941571,1
0.013427917643023353,-0.7261121602812589,-0.06735682399573348,-0.011369575451265379,-0.3305080136875148,-0.00821364433948511,-0.0027061016973787834,-0.14566975388258138,-0.010254284769998128,-0.12210892166151863,0.8850958803131604,0.6233847457178117,0.03962053355009681,-0.0007003514736996114,1
0.006842816325654424,-0.9381271912890057,-0.2753404753408238,-0.014318064776959611,-0.4488234053139503,-0.006633990776598752,-0.0018149470966520964,-0.057931365879555656,-0.010731737483826635,-0.2703363715218662,0.5728003291830355,0.42575783252489197,0.027736359145045585,-0.003660755190840944,1
0.006228848926776979,-1.0275914394863246,-0.33296365147107565,-0.014810757726701783,-0.4635048772675736,-0.005232133718625852,-0.0012563453103430424,0.09945150131657096,-0.007852978473979269,-0.32447618476871415,0.6135575451779854,0.46282792342831314,0.026461872474866,-0.0030513601596174633,1
0.008901412898360312,-0.8824025014142796,-0.14816432489713197,-0.013434284816527274,-0.3305080136875148,-0.006110858752526071,-0.0011454943722038315,0.432311144518749,-0.0004103332290088596,-0.06823192304206442,0.8443386643182104,0.5985911134902043,0.03155154326811547,-0.0018325700971705018,1
0.009314737356427854,-0.7261121602812589,0.013450676905665012,-0.012548587762905237,-0.24213130996657295,-0.007687093151856323,-0.0019257980347913073,0.4671333841152684,0.0003105267506926763,0.0529256201948352,0.9528481354736091,0.7098013862004678,0.03198188941648817,-0.0013963179438991635,1
0.011373333929133743,-0.6479669897147435,0.0017459692542200816,-0.011664807802472725,-0.18311755015290387,-0.00681178728151221,-0.0024843998211003617,0.09945150131657096,-0.004969538555173124,0.0395220741968201,1.0478600870462584,0.7837008531313087,0.03452258686937846,-0.00017922536064784745,1
0.013018606043771723,-0.5922422998400174,0.04788952826474972,-0.010876882501523294,-0.12381591834016366,-0.006459613435241087,-0.002149673458876229,-0.057931365879555656,-0.004492085841345045,0.24162652267662182,1.2243864706088081,0.8455645762623372,0.04173916074208404,0.0003435982315995621,1
0.010137373413747028,-0.7485326409730382,0.05959423591621512,-0.01196004015368007,-0.24213130996657295,-0.008914572868471558,-0.0028169526355179943,-0.11050611978020614,-0.0037712258616430833,0.24162652267662182,1.2108889510260588,0.8207709440347298,0.04046467407190445,-0.0007886203918713282,1
0.008492101299108682,-0.8713010983533039,-0.02121326498518337,-0.0136298283218724,-0.4488234053139503,-0.010142052585086794,-0.004045007146275314,-0.14566975388258138,-0.0066499848714904495,-0.054828377044073215,1.0071028710513084,0.808494485358916,0.03282602993829505,-0.001571158301046797,1
0.010137373413747028,-0.781836850155985,0.0017459692542200816,-0.01382728892040714,-0.49286782117487254,-0.009266746714742681,-0.0031516789977420277,0.23976464322024715,-0.004253359484430792,-0.01435492442261021,0.9120909194786591,0.857841034938151,0.03070740274630858,-0.0012231750659471754,1
0.009932717614121213,-0.8042573308477643,0.02493029402536674,-0.013336513063854668,-0.4044911174539307,-0.008565818185756231,-0.001369369796288753,0.5722828919165693,-0.0013699195656246483,0.1338725254377134,0.9528481354736091,0.808494485358916,0.03198188941648817,-0.001571158301046797,1
0.008696757098734497,-0.8266778115395534,0.02493029402536674,-0.013925060673079746,-0.43385406136120347,-0.008565818185756231,-0.00226052439701544,0.34457275651569225,-0.006172532157661944,-0.09530182966551232,0.9528481354736091,0.7343543035520737,0.032403959677391236,-0.002267124771246349,1
0.008492101299108682,-0.781836850155985,0.03640991114506847,-0.013925060673079746,-0.5225186370812427,-0.009793297902371467,-0.003597256298105371,0.2046010091178719,-0.00929469843338234,-0.2703363715218662,0.8985933998959097,0.7343543035520737,0.03070740274630858,-0.001571158301046797,1
0.008901412898360312,-0.8042573308477643,0.02493029402536674,-0.012746048361439976,-0.43385406136120347,-0.009793297902371467,-0.0027061016973787834,0.4671333841152684,-0.005212945821046581,-0.12210892166151863,0.8850958803131604,0.7837008531313087,0.026883942735769068,-0.0012231750659471754,1
0.008901412898360312,-0.7931559277867886,0.0017459692542200816,-0.012353044257560022,-0.19779902210655337,-0.008039266998127445,-0.0015910716725671748,0.5197081380159189,-0.005451672177960408,0.0395220741968201,0.9393506158908598,0.8455645762623372,0.029432916076128992,-0.0014845868620708802,1
0.007874121041415324,-0.7036916795894697,0.013450676905665012,-0.012843820114112583,-0.15346673424653376,-0.006986164622869873,-0.0017040961585128858,0.2923393971208976,-0.007852978473979269,0.10680261881428942,1.02086504788076,0.857841034938151,0.03664948994883382,-0.0007886203918713282,1
0.005402200010641894,-0.8153587339087499,-0.009733647865481646,-0.013532056569199794,-0.25681278192022244,-0.006110858752526071,-0.0011454943722038315,0.4671333841152684,-0.0006490595859231124,0.20115307005518274,1.0478600870462584,0.7837008531313087,0.03537500327865423,-0.0009617632698233163,1
0.003138947638310191,-0.9940695557335598,-0.06735682399573348,-0.014417753622821917,-0.3158265417338653,-0.0047055825309970664,0.00019123752888600105,0.852567781218097,0.006550178393174266,0.3091698819214849,1.0478600870462584,0.7343543035520737,0.03367844634757082,-0.0029647887206413924,1
0.003552272096378099,-0.9159243851670444,-0.07906153164717841,-0.014318064776959611,-0.27149425387384574,-0.004883379035910836,0.0010823921296126877,0.852567781218097,0.0036714193833273256,0.36304688054093914,1.0751197834584594,0.7837008531313087,0.038346046879917224,-0.0030513601596174633,1
0.006433504726402794,-0.7485326409730382,0.013450676905665012,-0.012548587762905237,-0.24213130996657295,-0.005758684906254638,0.0006368148292493444,0.6596798854137703,-0.00017160687209460674,0.3764504265389543,1.0751197834584594,0.907187584517386,0.0379239766190134,-0.001571158301046797,1
0.008078776841041139,-0.7261121602812589,0.14040173681761361,-0.012057811906352677,-0.27149425387384574,-0.006633990776598752,-0.0004760416477555663,0.6422687656154951,0.0017475658011369708,0.36304688054093914,1.0343625674635093,0.9813277663242284,0.03198188941648817,-0.0020057129751226443,1
0.005610868669083622,-0.9046053075362409,0.09425817780706351,-0.013532056569199794,-0.3748403015475344,-0.008565818185756231,-0.0008107680099796988,0.6948435195161455,0.0005492531076069291,0.24162652267662182,0.9528481354736091,0.796218026683124,0.027314288884141766,-0.0034859148336933107,1
0.0012890197240463964,-1.0944175324220364,-0.06735682399573348,-0.014711068880839564,-0.41917258940755403,-0.009088950209829222,-0.0011454943722038315,0.5197081380159189,-0.005451672177960408,0.066591980820268,0.7628242323283102,0.6479376630694175,0.02263841246432724,-0.004183578783088354,1
-0.00015159659096613382,-1.0275914394863246,-0.09054114876688014,-0.014613297128167044,-0.4044911174539307,-0.007861470493213986,-0.0015910716725671748,0.5371192578141941,-0.00569039853487466,-0.027758470420625316,0.6408172415901863,0.6850077539728386,0.020097715011436194,-0.004791276335116189,1
0.001698331323297661,-0.8042573308477643,0.02493029402536674,-0.013434284816527274,-0.27149425387384574,-0.007687093151856323,-0.0011454943722038315,0.8699789010163722,0.00342801211745387,0.07999552681825921,0.8308411447354851,0.7343543035520737,0.024765315543782595,-0.0046181334571642006,1
0.003138947638310191,-0.7596340440340237,0.09425817780706351,-0.012746048361439976,-0.18311755015290387,-0.007861470493213986,-0.0002543397714773423,0.9751284088176732,0.006311452036260439,0.2820999752980609,0.9258530963081105,0.697524927524654,0.028580499666852475,-0.0035741837518648728,1
0.0012890197240463964,-0.9270257882280301,0.013450676905665012,-0.01372951716773462,-0.22716196601382616,-0.005758684906254638,0.0006368148292493444,0.8174041471157217,-0.002090779545326184,0.14727607143572852,0.7220670163333601,0.5492445639109693,0.02560945606558948,-0.003833898068792932,1
0.0014936755236722111,-0.8599820207224904,0.013450676905665012,-0.01372951716773462,-0.301145069780242,-0.004531205189639403,0.000971541191473477,0.7822405130133464,-0.004969538555173124,-0.14917882828494264,0.6678122807556608,0.5740381961385767,0.024343245282878772,-0.0034859148336933107,1
0.006842816325654424,-0.5362999353954634,0.18654529582816373,-0.011467347203937986,-0.21248049406020283,-0.006459613435241087,0.00041511295297112045,0.6948435195161455,0.001270113087308465,0.0395220741968201,0.9801078318858099,0.8455645762623372,0.03112947300721165,-0.0013097465049230921,1
0.010755353671440385,-0.4246328810761832,0.4172630908808938,-0.010483878397643342,-0.02046987066647499,-0.00681178728151221,-0.0008107680099796988,0.4671333841152684,0.000787979464521182,0.3091698819214849,1.2108889510260588,1.0429507745792772,0.0379239766190134,-0.0007003514736996114,1
0.008901412898360312,-0.5809232222092138,0.39430385664149037,-0.011271803698592946,-0.02046987066647499,-0.005758684906254638,-0.0011454943722038315,0.3971475104163427,-0.004969538555173124,0.22822297667860672,1.1158769994534095,0.9319812167449933,0.036219143800461866,-0.002267124771246349,1
0.006433504726402794,-0.6703874704065327,0.1633609710569966,-0.011369575451265379,-0.18311755015290387,-0.005584307564897285,-3.046434739222294e-05,0.5722828919165693,-0.002090779545326184,0.21481943068059162,1.0478600870462584,0.8207709440347298,0.03452258686937846,-0.0020057129751226443,1
0.006433504726402794,-0.6479669897147435,0.03640991114506847,-0.011565118956610592,-0.15346673424653376,-0.00435682784828205,0.0005259638911101336,0.7122546393144208,0.0024684257808385065,0.33597697391751513,1.0751197834584594,0.8826346671657583,0.03410051660847464,-0.001919141536146573,1
0.004374908153696906,-0.7485326409730382,0.013450676905665012,-0.01225335541169789,0.03854388914719408,-0.002777174285395693,-0.0002543397714773423,0.6948435195161455,-0.0016133268314976786,0.1338725254377134,0.8985933998959097,0.796218026683124,0.024765315543782595,-0.004183578783088354,1
0.001906999981739754,-0.7372135633422345,-0.02121326498518337,-0.011762579555145331,0.08287617700721368,-0.0029549707903091514,-0.0011454943722038315,0.5722828919165693,-0.006411258514576196,-0.21645937290241193,0.6543147611729355,0.5492445639109693,0.016274255000897433,-0.00514095704941161,1
0.004170252354071457,-0.4246328810761832,-0.0329179726366283,-0.010386106644970736,0.05322536110084357,-0.005232133718625852,-0.0017040961585128858,0.4848858984193995,-0.0011311932087103955,-0.21645937290241193,0.6543147611729355,0.4505514647524993,0.016696325261801252,-0.0046181334571642006,1
0.006638160526028609,-0.3131835013267309,0.0017459692542200816,-0.010386106644970736,0.023574545194473457,-0.007338338469140996,-0.00226052439701544,0.5022970182176747,0.0029505594036257896,0.0395220741968201,0.7763217519110596,0.5740381961385767,0.018823228341256607,-0.004356721661040341,1
0.004788232611764814,-0.547401338456449,0.02493029402536674,-0.012057811906352677,-0.18311755015290387,-0.006633990776598752,-0.0017040961585128858,0.8174041471157217,0.001508839444222718,0.21481943068059162,0.8443386643182104,0.6604548366212328,0.02221634220342342,-0.003833898068792932,1
0.003138947638310191,-0.6479669897147435,0.0017459692542200816,-0.012648276608767368,-0.28646359782659253,-0.0050577563772684995,-0.0004760416477555663,1.0273617682124678,0.0024684257808385065,0.24162652267662182,0.9258530963081105,0.6356612043936255,0.023912899134506827,-0.0034859148336933107,1
0.004170252354071457,-0.43595195870699666,0.02493029402536674,-0.01117211485273064,-0.12381591834016366,-0.006986164622869873,-0.0011454943722038315,0.5197081380159189,-0.0018520531884119314,0.10680261881428942,0.871333703483709,0.6233847457178117,0.0217942719425196,-0.0035741837518648728,1
0.004374908153696906,-0.3353863074486922,0.04788952826474972,-0.010483878397643342,-0.06480215852649458,-0.008914572868471558,-0.002929977121463705,-0.197903113277376,-0.012894317422931243,-0.12210892166151863,0.6950719771678856,0.6356612043936255,0.0171266714101732,-0.004095309864916637,1
0.003552272096378099,-0.514097129273502,-0.009733647865481646,-0.012057811906352677,-0.15346673424653376,-0.006986164622869873,-0.0023713753351546508,-0.11050611978020614,-0.01313304377984507,-0.21645937290241193,0.5593028096002861,0.6233847457178117,0.010332167798371447,-0.0046181334571642006,1
0.004374908153696906,-0.7261121602812589,-0.07906153164717841,-0.013041280712647322,-0.24213130996657295,-0.0054065110599835165,-0.0002543397714773423,0.432311144518749,-0.004969538555173124,-0.20305582690439683,0.5458052900175369,0.5985911134902043,0.00905768112819186,-0.0042701502220644245,1
0.006228848926776979,-0.5809232222092138,0.04788952826474972,-0.012057811906352677,-0.27149425387384574,-0.006285236093883424,-0.00036519070961635547,0.5896940117148446,-0.004253359484430792,-0.24352927952583595,0.5593028096002861,0.5740381961385767,0.014577698069814026,-0.003312771955741168,1
0.008901412898360312,-0.20151644700745072,0.2903120309689452,-0.010876882501523294,-0.12381591834016366,-0.006459613435241087,-0.0017040961585128858,0.5197081380159189,-0.004009952218557336,-0.16258237428295774,0.6270550647607107,0.5740381961385767,0.015852184739993613,-0.002267124771246349,1
0.013841242101090896,-0.045226105874429996,0.39430385664149037,-0.009697870189883611,0.03854388914719408,-0.0054065110599835165,-0.0011454943722038315,0.6074465260189756,0.0031892857605400424,0.026118528198828893,0.8578361839009596,0.7343543035520737,0.019667368863064246,-0.00017922536064784745,1
0.017340454988809314,-0.06742891199639127,0.4172630908808938,-0.009009633734796314,-0.005788398712825509,-0.006110858752526071,-0.0008107680099796988,0.6948435195161455,0.004392279363028861,0.1609424320611374,1.1158769994534095,0.956534134096621,0.03027705659793588,0.0009529932628230429,1
0.015281858416103425,-0.02280562518265072,0.34816029763094025,-0.008911861982123705,-0.02046987066647499,-0.006633990776598752,-0.0023713753351546508,0.432311144518749,-0.0037712258616430833,0.09339907281627431,0.9801078318858099,0.8207709440347298,0.027314288884141766,-0.0013963179438991635,1
0.011782645528385007,-0.045226105874429996,0.23268885483869337,-0.008911861982123705,0.023574545194473457,-0.00435682784828205,-0.0018149470966520964,0.23976464322024715,-0.007132118494277732,-0.18965228090638173,0.6408172415901863,0.5369681052351555,0.014577698069814026,-0.0030513601596174633,1
0.012195969986452915,-0.134472679501921,0.23268885483869337,-0.009697870189883611,-0.07977150247921522,-0.003655899319295601,-0.00014348883333813148,0.34457275651569225,-0.003532499504729256,-0.18965228090638173,0.6678122807556608,0.6356612043936255,0.015430114479090547,-0.001571158301046797,1
0.015281858416103425,-0.17909596631567146,0.3364555899794953,-0.010288334892298303,-0.06480215852649458,-0.007338338469140996,-0.0011454943722038315,0.37973639061809855,-0.0018520531884119314,0.07999552681825921,0.9528481354736091,0.8949111258415722,0.024765315543782595,-4.385003500213876e-06,1
0.015695182874170967,-0.134472679501921,0.359639914750642,-0.00910740548746892,-0.06480215852649458,-0.008740195527113895,-0.0017040961585128858,0.3271616367174481,-0.004009952218557336,0.09339907281627431,0.9258530963081105,0.8455645762623372,0.023912899134506827,-0.0009617632698233163,1
0.012195969986452915,-0.12337127644094531,0.26735279672954176,-0.009207094333331053,-0.22716196601382616,-0.006285236093883424,-0.0006999170718404881,0.3097505169191728,-0.006172532157661944,-0.09530182966551232,0.790083928740535,0.6356612043936255,0.016696325261801252,-0.0023553936894179115,1
0.01116466527069165,-0.134472679501921,0.2212092377190121,-0.010876882501523294,-0.25681278192022244,-0.004531205189639403,-0.0005890661337014749,0.3971475104163427,-0.0037712258616430833,-0.054828377044073215,0.9258530963081105,0.6604548366212328,0.019667368863064246,-0.0014845868620708802,1
0.01507720261647761,-0.06742891199639127,0.32497597285979357,-0.009502326684538398,-0.10913444638651418,-0.004531205189639403,-0.0009237924959256074,0.5722828919165693,0.0024684257808385065,0.18774952405716763,1.0478600870462584,0.9197047580691795,0.028158429405948655,0.0006915814666993381,1
0.018163091046128486,0.06644094844485018,0.4636317404231871,-0.007337928473414371,0.023574545194473457,-0.00435682784828205,-0.0010346434340646206,0.7122546393144208,0.00342801211745387,0.29550352129607604,1.0478600870462584,1.0677444068068844,0.03112947300721165,0.001039564701799114,1
0.01507720261647761,-0.011704222121665133,0.4172630908808938,-0.00841916903238162,-0.0501206865728451,-0.004531205189639403,-0.0011454943722038315,0.6422687656154951,-0.0023295059022400114,0.012452167573396102,0.749326712745585,0.8826346671657583,0.024343245282878772,-0.0010483347087993874,1
0.009932717614121213,-0.3131835013267309,0.3134963557400919,-0.01009087429376339,-0.24213130996657295,-0.005584307564897285,-0.0015910716725671748,0.432311144518749,-0.00569039853487466,-0.3378797307667293,0.15225996414421386,0.6479376630694175,0.011606654468551034,-0.00287651980246983,1
0.008492101299108682,-0.3913286718932462,0.26735279672954176,-0.009600098437211005,-0.27149425387384574,-0.0071605419642275375,-0.002149673458876229,0.22201212891614713,-0.005212945821046581,-0.3378797307667293,-0.2142903225636346,0.5863146548143905,0.004820426744218159,-0.0034859148336933107,1
0.00766946524178951,-0.26834253994316243,0.14040173681761361,-0.00861662963091636,-0.10913444638651418,-0.00681178728151221,-0.0019257980347913073,0.3623252708198233,-0.002090779545326184,-0.10870537566350352,-0.2142903225636346,0.5246916465593416,0.007791470345481153,-0.004356721661040341,1
0.0060201802683352516,-0.35780678814048134,0.013450676905665012,-0.009993102541090957,-0.0944529744328647,-0.003830276660653265,-0.0011454943722038315,0.6948435195161455,0.001508839444222718,0.0529256201948352,-0.20079280298088528,0.4998980143317343,0.008635610867288793,-0.005052688131239894,1
0.005815524468709437,-0.5362999353954634,-0.009733647865481646,-0.01196004015368007,-0.21248049406020283,-0.0029549707903091514,-0.0009237924959256074,0.5548717721183252,0.0017475658011369708,-0.0009513784246190055,-0.26854505814130986,0.5615210225867832,0.003115593925666626,-0.004791276335116189,1
0.005197544211016079,-0.514097129273502,-0.009733647865481646,-0.011762579555145331,-0.24213130996657295,-0.004182450506924387,-0.0004760416477555663,0.5197081380159189,0.0022296994239242537,-0.0009513784246190055,-0.2958047545535347,0.5369681052351555,0.0018493831429551662,-0.0042701502220644245,1
0.003347616296752284,-0.3913286718932462,-0.009733647865481646,-0.010876882501523294,-0.1387852622928843,-0.0034781028143818318,0.0005259638911101336,0.852567781218097,0.0017475658011369708,0.09339907281627431,-0.3365619705484848,0.5740381961385767,0.006516983675301566,-0.00453156201818813,1
0.002111655781365569,-0.45815476482895795,0.0017459692542200816,-0.011369575451265379,-0.19779902210655337,-0.003655899319295601,0.0005259638911101336,0.7648293932150713,-0.003293773147815003,-0.027758470420625316,-0.3365619705484848,0.6604548366212328,0.008635610867288793,-0.005052688131239894,1
0.0027296360390589264,-0.6033437029009932,0.013450676905665012,-0.011762579555145331,-0.4044911174539307,-0.006633990776598752,-0.0006999170718404881,0.34457275651569225,-0.005451672177960408,-0.31080982414330527,-0.37705452929670863,0.5863146548143905,0.006516983675301566,-0.00514095704941161,1
0.002934291838684376,-0.547401338456449,0.013450676905665012,-0.011369575451265379,-0.4044911174539307,-0.007861470493213986,-0.001480220734427964,0.4671333841152684,-0.0018520531884119314,-0.28400273214727506,-0.5535809128592581,0.475104382104127,0.003545940074038573,-0.00514095704941161,1
0.003138947638310191,-0.5027780516426985,0.07107385303591685,-0.01117211485273064,-0.24213130996657295,-0.006459613435241087,-0.001369369796288753,0.8348152669139969,0.001990973067010001,-0.054828377044073215,-0.5265858736937595,0.5615210225867832,0.005664567266025799,-0.004966116692263822,1
0.003138947638310191,-0.5809232222092138,0.07107385303591685,-0.011271803698592946,-0.3158265417338653,-0.006633990776598752,-0.0017040961585128858,0.7648293932150713,0.000787979464521182,-0.13577528228695143,-0.4858286576988095,0.5492445639109693,0.006516983675301566,-0.004879545253287905,1
0.0027296360390589264,-0.5698218191482283,0.0017459692542200816,-0.011565118956610592,-0.4488234053139503,-0.008740195527113895,-0.002929977121463705,0.432311144518749,-0.005933805800748117,-0.35128327676474436,-0.6078356484369576,0.37641128294565696,0.00014455032440363277,-0.005488940284511232,1
0.003961583695629363,-0.43595195870699666,0.03640991114506847,-0.010876882501523294,-0.3158265417338653,-0.009266746714742681,-0.003597256298105371,0.18718988931959668,-0.008573838453680805,-0.37835318338816837,-0.580840609271459,0.43827500607668546,0.0005748964727755795,-0.005052688131239894,1
0.006842816325654424,-0.36890819120145707,0.10573779492676523,-0.009402637838676266,-0.21248049406020283,-0.009088950209829222,-0.0031516789977420277,0.11720401562067098,-0.00569039853487466,-0.18965228090638173,-0.4043142257089094,0.6111082870419978,0.006516983675301566,-0.00453156201818813,1
0.005815524468709437,-0.45815476482895795,0.04788952826474972,-0.009993102541090957,-0.3454773576402616,-0.009441124056100344,-0.003821131722190293,0.09945150131657096,-0.004969538555173124,-0.10870537566350352,-0.47206648086935804,0.5492445639109693,0.004820426744218159,-0.005836923519611008,1
0.001698331323297661,-0.5362999353954634,-0.0329179726366283,-0.011565118956610592,-0.4635048772675736,-0.009441124056100344,-0.004155858084414425,0.2046010091178719,-0.005451672177960408,-0.23012573352782084,-0.6620903840146569,0.37641128294565696,-0.00027751993650018724,-0.006880873224910336,1
0.0012890197240463964,-0.4805752455207372,-0.02121326498518337,-0.0109765713473856,-0.4044911174539307,-0.009441124056100344,-0.0027061016973787834,0.3623252708198233,-0.005451672177960408,-0.37835318338816837,-0.6893500804268576,0.31478827469063,-0.0006995901974040071,-0.006446318550834489,1
0.003756927896003549,-0.4135314780152075,0.013450676905665012,-0.009993102541090957,-0.3601588295939111,-0.010142052585086794,-0.0015910716725671748,0.37973639061809855,-0.00809170483089352,-0.44563372800563766,-0.702847600009607,0.3393411920422358,-0.0023961471284866614,-0.006271478193686855,1
0.0027296360390589264,-0.4470533617679724,0.013450676905665012,-0.010876882501523294,-0.4635048772675736,-0.009266746714742681,-0.0006999170718404881,0.3971475104163427,-0.007852978473979269,-0.5131770872505008,-0.8658764639894072,0.3393411920422358,-0.005367190729749655,-0.0070557135820579694,1
-0.00015159659096613382,-0.5587204160872525,-0.009733647865481646,-0.011565118956610592,-0.4781863492212231,-0.006633990776598752,0.0006368148292493444,0.5548717721183252,-0.00281163952502772,-0.5533877252445222,-1.0828954063001806,0.3393411920422358,-0.006641677399929241,-0.007578537174305379,1
-0.0011829013067270345,-0.5698218191482283,-0.0329179726366283,-0.011074343100058033,-0.3895217735011839,-0.007338338469140996,8.03865907469879e-05,0.8174041471157217,0.0024684257808385065,-0.24352927952583595,-1.0013809743102806,0.3886877416214708,-0.005367190729749655,-0.006794301785934265,1
0.0006710394663530387,-0.4805752455207372,0.0017459692542200816,-0.0109765713473856,-0.3158265417338653,-0.009088950209829222,-0.0012563453103430424,0.9751284088176732,0.003910145740241578,0.0529256201948352,-0.702847600009607,0.4998980143317343,0.00014455032440363277,-0.005314099927363598,1
0.0012890197240463964,-0.5362999353954634,0.04788952826474972,-0.0109765713473856,-0.301145069780242,-0.006633990776598752,-0.0005890661337014749,0.747418273416796,-0.0016133268314976786,-0.09530182966551232,-0.6350953448491583,0.5615210225867832,0.0014190369945832194,-0.0060100663975631505,1
5.305920865968095e-05,-0.6814888734675084,0.10573779492676523,-0.0109765713473856,-0.301145069780242,-0.005232133718625852,0.00019123752888600105,0.34457275651569225,-0.005933805800748117,-0.39175672938618344,-0.8658764639894072,0.43827500607668546,-0.005367190729749655,-0.00766510861328145,1
-0.00015159659096613382,-0.6368655866537579,0.14040173681761361,-0.010583567243505648,-0.27149425387384574,-0.007338338469140996,-0.0005890661337014749,0.25717576301852235,-0.004730812198258872,-0.4727036346290617,-0.9878834547275313,0.37641128294565696,-0.009190650740288414,-0.006969142143081898,1
-0.00035625239059194864,-0.4805752455207372,0.05959423591621512,-0.009795641942556043,-0.16814820620018325,-0.00681178728151221,-0.0012563453103430424,0.23976464322024715,-0.005451672177960408,-0.4051602753841986,-0.8251192479944571,0.46282792342831314,-0.004092704059570068,-0.005836923519611008,1
-0.0009742326482853063,-0.46925616788993363,-0.0329179726366283,-0.00989533078841835,-0.06480215852649458,-0.005584307564897285,-0.0017040961585128858,0.2745868828167976,-0.003532499504729256,-0.29740627814529014,-0.7166097768390585,0.4998980143317343,0.0018493831429551662,-0.006271478193686855,1
-0.0020055373640462068,-0.5809232222092138,-0.05587720687603176,-0.011074343100058033,-0.12381591834016366,-0.007861470493213986,-0.0023713753351546508,0.5022970182176747,-0.0008924668517961427,-0.17598592028097285,-0.7301072964218077,0.4505514647524993,0.0018493831429551662,-0.006880873224910336,1
-0.0030328292209911944,-0.5698218191482283,-0.06735682399573348,-0.011369575451265379,-0.301145069780242,-0.009793297902371467,-0.002929977121463705,0.4671333841152684,-0.004253359484430792,-0.28400273214727506,-0.7978595515822323,0.43827500607668546,-0.00027751993650018724,-0.007142285021034041,1
-0.003650809478684552,-0.5809232222092138,-0.02121326498518337,-0.011369575451265379,-0.4044911174539307,-0.009441124056100344,-0.0031516789977420277,0.2923393971208976,-0.0066499848714904495,-0.48610718062707675,-0.9201311995671067,0.4134813738490781,-0.0023961471284866614,-0.00766510861328145,1
-0.0020055373640462068,-0.6814888734675084,0.0017459692542200816,-0.011860351307817938,-0.3454773576402616,-0.009441124056100344,-0.0027061016973787834,0.34457275651569225,-0.0037712258616430833,-0.48610718062707675,-0.9471262387325812,0.3393411920422358,-0.005367190729749655,-0.00766510861328145,1
-0.0007695768486594915,-0.6368655866537579,-0.17134864966827865,-0.01225335541169789,-0.3305080136875148,-0.0071605419642275375,-0.0019257980347913073,0.5548717721183252,-0.0008924668517961427,-0.25693282552385105,-0.8386167675771824,0.2899946424630008,-0.004523050207942767,-0.0074036968171577455,1
-0.0026235176217395645,-0.547401338456449,-0.4022915352527724,-0.013236824217992448,-0.3158265417338653,-0.004531205189639403,-0.0008107680099796988,0.7648293932150713,0.0003105267506926763,-0.09530182966551232,-0.7843620319995072,0.24064809288376576,0.0009969667336793995,-0.007228856460009958,1
-0.0020055373640462068,-0.6255465090229544,-0.3559228857104586,-0.0136298283218724,-0.19779902210655337,-0.006110858752526071,-0.0005890661337014749,0.8174041471157217,0.001990973067010001,-0.10870537566350352,-0.7708645124167578,0.2529245515595796,0.003545940074038573,-0.006619461428786631,1
0.0008756952659788534,-0.6590683927757292,-0.14816432489713197,-0.013041280712647322,-0.3454773576402616,-0.009793297902371467,-0.0028169526355179943,0.5371192578141941,6.711948481964606e-05,-0.14917882828494264,-0.7571023355872822,0.3022711011388146,0.0009969667336793995,-0.006619461428786631,1
-0.00035625239059194864,-0.6814888734675084,-0.20601259155912702,-0.014024749518941965,-0.6258646847549313,-0.012244838172045832,-0.005157863623280224,0.2046010091178719,-0.0030503658819415473,-0.2703363715218662,-0.9608884155620567,0.20357800198034462,-0.004092704059570068,-0.007838251491233439,1
-0.004886769994071267,-0.7372135633422345,-0.33296365147107565,-0.01490852947937439,-0.49286782117487254,-0.012244838172045832,-0.005157863623280224,0.16977876952132145,-0.003532499504729256,-0.2703363715218662,-1.1101551027123815,0.09260844414608262,-0.008338234331012648,-0.008795629757556695,1
-0.006118717650641705,-0.6144451059619787,-0.49457865327385214,-0.014220293024287092,-0.21248049406020283,-0.010316429926444146,-0.003931982660329503,0.3097505169191728,-0.002572913168113467,-0.14917882828494264,-1.015143151139732,0.08009127059428915,-0.0070637476608330614,-0.008883898675728258,1
-0.006736697908335062,-0.5809232222092138,-0.6330093303055024,-0.014711068880839564,-0.301145069780242,-0.009266746714742681,-0.004155858084414425,0.41490002472047377,-0.0023295059022400114,-0.14917882828494264,-0.9336287191498318,0.09260844414608262,-0.0032485635377631807,-0.00844764652245692,1
-0.008177314223347592,-0.8153587339087499,-0.5060582703935539,-0.01569453768713421,-0.3748403015475344,-0.009266746714742681,-0.004377559960692748,0.5022970182176747,-0.003532499504729256,-0.20305582690439683,-0.8386167675771824,0.15423145240113148,-0.0028264932768593608,-0.008013091848381226,1
-0.00570940605139044,-0.8824025014142796,-0.34444326859075686,-0.014613297128167044,-0.25681278192022244,-0.008388021680842772,-0.0034864053599661603,0.5548717721183252,-0.0037712258616430833,-0.20305582690439683,-0.7301072964218077,0.31478827469063,-0.005367190729749655,-0.007838251491233439,1
-0.0024148489632978367,-0.692590276528494,-0.21749220867882874,-0.013925060673079746,-0.3158265417338653,-0.00821364433948511,-0.003597256298105371,0.4497222643169932,-0.0037712258616430833,-0.20305582690439683,-0.7571023355872822,0.4505514647524993,-0.004523050207942767,-0.006794301785934265,1
-0.0028281734213653795,-0.6255465090229544,-0.07906153164717841,-0.014220293024287092,-0.3454773576402616,-0.009793297902371467,-0.003710280784051181,0.5197081380159189,6.711948481964606e-05,-0.12210892166151863,-0.6485928644319076,0.5740381961385767,0.0014190369945832194,-0.005836923519611008,1
-0.004886769994071267,-0.6703874704065327,-0.13668470777743025,-0.014220293024287092,-0.28646359782659253,-0.008039266998127445,-0.002149673458876229,0.9751284088176732,0.006068044770386983,0.12046897943969831,-0.39081670612618413,0.6356612043936255,0.006516983675301566,-0.006707730346958193,1
-0.00591406185101589,-0.6144451059619787,-0.24067653344997542,-0.014024749518941965,-0.301145069780242,-0.006459613435241087,-0.00036519070961635547,1.2199082695109695,0.005590592056558903,0.24162652267662182,-0.4043142257089094,0.6111082870419978,0.0060866375269296195,-0.0074902682561336625,1
-0.005091425793697082,-0.547401338456449,-0.07906153164717841,-0.014024749518941965,-0.3305080136875148,-0.00821364433948511,-0.0006999170718404881,1.0099506484142236,0.0031892857605400424,0.24162652267662182,-0.5535809128592581,0.5615210225867832,0.00524249700512198,-0.006707730346958193,1
